%OpenBCI Raw EXG Data
%Number of channels = 8
%Sample Rate = 250 Hz
%Board = OpenBCI_GUI$BoardCytonSerial
Sample Index, EXG Channel 0, EXG Channel 1, EXG Channel 2, EXG Channel 3, EXG Channel 4, EXG Channel 5, EXG Channel 6, EXG Channel 7, Accel Channel 0, Accel Channel 1, Accel Channel 2, Not Used, Digital Channel 0 (D11), Digital Channel 1 (D12), Digital Channel 2 (D13), Digital Channel 3 (D17), Not Used, Digital Channel 4 (D18), Analog Channel 0, Analog Channel 1, Analog Channel 2, Timestamp, Marker Channel, Timestamp (Formatted)
19.0, -13102.011454345162, -20989.11505807818, -38331.90063618429, -15515.038730506747, -14263.497503220739, -187500.02235174447, -187500.02235174447, -187500.02235174447, 0.0, 0.0, 0.0, 192.0, 0.0, 0.0, 0.0, 0.0, 0.0, 0.0, 0.0, 0.0, 0.0, 1.769566420023103E9, 0.0, 2026-01-27 18:13:40.023
20.0, -13094.590675186, -20926.083138714213, -37895.95221232798, -15472.212788130379, -14240.698723876325, -187500.02235174447, -187500.02235174447, -187500.02235174447, 0.0, 0.0, 0.0, 192.0, 0.0, 0.0, 0.0, 0.0, 0.0, 0.0, 0.0, 0.0, 0.0, 1.7695664200231555E9, 0.0, 2026-01-27 18:13:40.023
21.0, -13080.978462812718, -20923.445632868486, -32917.68228026418, -15457.482988534332, -14223.398473667918, -187500.02235174447, -187500.02235174447, -187500.02235174447, 0.044, -0.014, 0.99, 192.0, 1.0, 96.0, 255.0, 144.0, 30.0, 240.0, 0.0, 0.0, 0.0, 1.7695664200231712E9, 0.0, 2026-01-27 18:13:40.023
0.0, 0.0, 0.0, 0.0, 0.0, 0.0, 0.0, 0.0, 0.0, 0.044, -0.014, 0.99, 192.0, 0.0, 0.0, 0.0, 0.0, 0.0, 0.0, 0.0, 0.0, 0.0, 1.7695664201025796E9, 0.0, 2026-01-27 18:13:40.102
1.0, -13337.420026948455, -19176.053306585945, -35488.222299602305, -14690.169953128096, -14516.519250454814, -187500.02235174447, -187500.02235174447, -187500.02235174447, 0.042, -0.012, 0.99, 192.0, 1.0, 80.0, 255.0, 160.0, 30.0, 240.0, 0.0, 0.0, 0.0, 1.769566420119588E9, 0.0, 2026-01-27 18:13:40.119
2.0, -13007.508278788124, -18860.849006277207, -32558.132118956106, -14353.17270197543, -14189.33441511803, -187500.02235174447, -187500.02235174447, -187500.02235174447, 0.042, -0.012, 0.99, 192.0, 0.0, 0.0, 0.0, 0.0, 0.0, 0.0, 0.0, 0.0, 0.0, 1.7695664201226344E9, 0.0, 2026-01-27 18:13:40.122
3.0, -13056.860930545441, -18911.855687124218, -32533.58990354418, -14416.76341495078, -14240.922241320879, -187500.02235174447, -187500.02235174447, -187500.02235174447, 0.042, -0.012, 0.99, 192.0, 0.0, 0.0, 0.0, 0.0, 0.0, 0.0, 0.0, 0.0, 0.0, 1.7695664201266332E9, 0.0, 2026-01-27 18:13:40.126
4.0, -13366.544349973721, -19225.115385665344, -35178.82945285195, -14738.472072896013, -14548.795169448278, -187500.02235174447, -187500.02235174447, -187500.02235174447, 0.042, -0.012, 0.99, 192.0, 0.0, 0.0, 0.0, 0.0, 0.0, 0.0, 0.0, 0.0, 0.0, 1.769566420130636E9, 0.0, 2026-01-27 18:13:40.130
5.0, -13368.131323830048, -19215.302969849465, -35978.12783457373, -14737.935631029086, -14562.653251010568, -187500.02235174447, -187500.02235174447, -187500.02235174447, 0.042, -0.012, 0.99, 192.0, 0.0, 0.0, 0.0, 0.0, 0.0, 0.0, 0.0, 0.0, 0.0, 1.7695664201336331E9, 0.0, 2026-01-27 18:13:40.133
6.0, -13043.29342166107, -18901.149201530123, -32881.78537866895, -14401.653635698991, -14240.922241320879, -187500.02235174447, -187500.02235174447, -187500.02235174447, 0.042, -0.012, 0.99, 192.0, 0.0, 0.0, 0.0, 0.0, 0.0, 0.0, 0.0, 0.0, 0.0, 1.7695664201380117E9, 0.0, 2026-01-27 18:13:40.138
7.0, -13002.546191519046, -18860.983116743937, -32424.37928013555, -14364.147408502986, -14192.418955852861, -187500.02235174447, -187500.02235174447, -187500.02235174447, 0.042, -0.012, 0.99, 192.0, 0.0, 0.0, 0.0, 0.0, 0.0, 0.0, 0.0, 0.0, 0.0, 1.769566420141647E9, 0.0, 2026-01-27 18:13:40.141
8.0, -13338.179986259936, -19196.147524851265, -34552.98060810335, -14707.738424269966, -14518.30739001124, -187500.02235174447, -187500.02235174447, -187500.02235174447, 0.04, -0.016, 0.994, 192.0, 1.0, 64.0, 255.0, 128.0, 31.0, 16.0, 0.0, 0.0, 0.0, 1.7695664201459239E9, 0.0, 2026-01-27 18:13:40.145
9.0, -13412.3654261071, -19258.978278515136, -36323.015251519115, -14781.812105394854, -14600.964141006965, -187500.02235174447, -187500.02235174447, -187500.02235174447, 0.04, -0.016, 0.994, 192.0, 0.0, 0.0, 0.0, 0.0, 0.0, 0.0, 0.0, 0.0, 0.0, 1.7695664201506393E9, 0.0, 2026-01-27 18:13:40.150
10.0, -13118.574096986546, -18969.590243052273, -33306.87085471998, -14474.00623250082, -14310.436166576883, -187500.02235174447, -187500.02235174447, -187500.02235174447, 0.04, -0.016, 0.994, 192.0, 0.0, 0.0, 0.0, 0.0, 0.0, 0.0, 0.0, 0.0, 0.0, 1.7695664201546788E9, 0.0, 2026-01-27 18:13:40.154
11.0, -12973.354813260416, -18831.72468325194, -32353.12191881203, -14333.100835454565, -14164.56868226155, -187500.02235174447, -187500.02235174447, -187500.02235174447, 0.04, -0.016, 0.994, 192.0, 0.0, 0.0, 0.0, 0.0, 0.0, 0.0, 0.0, 0.0, 0.0, 1.769566420158766E9, 0.0, 2026-01-27 18:13:40.158
12.0, -13288.715575780341, -19148.337143461365, -33951.71868225559, -14662.342031281238, -14473.603901100625, -187500.02235174447, -187500.02235174447, -187500.02235174447, 0.04, -0.016, 0.994, 192.0, 0.0, 0.0, 0.0, 0.0, 0.0, 0.0, 0.0, 0.0, 0.0, 1.769566420161731E9, 0.0, 2026-01-27 18:13:40.161
13.0, -13436.952345007938, -19281.262967737075, -36450.24138095872, -14806.287265573415, -14613.391710924116, -187500.02235174447, -187500.02235174447, -187500.02235174447, 0.04, -0.016, 0.994, 192.0, 0.0, 0.0, 0.0, 0.0, 0.0, 0.0, 0.0, 0.0, 0.0, 1.7695664201656945E9, 0.0, 2026-01-27 18:13:40.165
14.0, -13194.6147316235, -19034.90204035068, -33816.982366678996, -14548.839872937187, -14380.08420229962, -187500.02235174447, -187500.02235174447, -187500.02235174447, 0.04, -0.016, 0.994, 192.0, 0.0, 0.0, 0.0, 0.0, 0.0, 0.0, 0.0, 0.0, 0.0, 1.7695664201699486E9, 0.0, 2026-01-27 18:13:40.169
15.0, -12961.597795676924, -18814.96087491046, -32290.671144803902, -14313.319541611618, -14139.89235638289, -187500.02235174447, -187500.02235174447, -187500.02235174447, 0.04, -0.016, 0.994, 192.0, 0.0, 0.0, 0.0, 0.0, 0.0, 0.0, 0.0, 0.0, 0.0, 1.7695664201736846E9, 0.0, 2026-01-27 18:13:40.173
16.0, -13239.80995891213, -19092.68129976765, -33396.814274408134, -14601.142954962606, -14405.520487489759, -187500.02235174447, -187500.02235174447, -187500.02235174447, 0.04, -0.016, 0.994, 192.0, 0.0, 0.0, 0.0, 0.0, 0.0, 0.0, 0.0, 0.0, 0.0, 1.769566420177756E9, 0.0, 2026-01-27 18:13:40.177
17.0, -13435.432426384978, -19287.923787584758, -36366.511746229146, -14805.683768473122, -14610.977722522943, -187500.02235174447, -187500.02235174447, -187500.02235174447, 0.04, -0.016, 0.994, 192.0, 0.0, 0.0, 0.0, 0.0, 0.0, 0.0, 0.0, 0.0, 0.0, 1.769566420183106E9, 0.0, 2026-01-27 18:13:40.183
18.0, -13255.411476541934, -19099.990320204535, -34417.61844368201, -14616.297437703304, -14440.52331930677, -187500.02235174447, -187500.02235174447, -187500.02235174447, 0.038, -0.012, 0.992, 192.0, 1.0, 48.0, 255.0, 160.0, 31.0, 0.0, 0.0, 0.0, 0.0, 1.7695664201867492E9, 0.0, 2026-01-27 18:13:40.186
19.0, -12950.533682171546, -18810.781098697316, -32329.429069689402, -14310.905553210445, -14136.316077270041, -187500.02235174447, -187500.02235174447, -187500.02235174447, 0.038, -0.012, 0.992, 192.0, 0.0, 0.0, 0.0, 0.0, 0.0, 0.0, 0.0, 0.0, 0.0, 1.7695664201897764E9, 0.0, 2026-01-27 18:13:40.189
20.0, -13172.531208101656, -19022.697987878084, -32997.34389750289, -14540.435617021993, -14348.568242617637, -187500.02235174447, -187500.02235174447, -187500.02235174447, 0.038, -0.012, 0.992, 192.0, 0.0, 0.0, 0.0, 0.0, 0.0, 0.0, 0.0, 0.0, 0.0, 1.7695664201937284E9, 0.0, 2026-01-27 18:13:40.193
21.0, -13419.674446543986, -19271.47290366565, -36090.512405695015, -14796.83247766882, -14599.846553784198, -187500.02235174447, -187500.02235174447, -187500.02235174447, 0.038, -0.012, 0.992, 192.0, 0.0, 0.0, 0.0, 0.0, 0.0, 0.0, 0.0, 0.0, 0.0, 1.7695664201977353E9, 0.0, 2026-01-27 18:13:40.197
22.0, -13310.30736092417, -19149.16415800621, -35040.78507909597, -14674.009641886907, -14497.207343245429, -187500.02235174447, -187500.02235174447, -187500.02235174447, 0.038, -0.012, 0.992, 192.0, 0.0, 0.0, 0.0, 0.0, 0.0, 0.0, 0.0, 0.0, 0.0, 1.76956642020184E9, 0.0, 2026-01-27 18:13:40.201
23.0, -12987.861095411909, -18842.38646535712, -32406.31907061566, -14339.828710535612, -14170.782467220124, -187500.02235174447, -187500.02235174447, -187500.02235174447, 0.038, -0.012, 0.992, 192.0, 0.0, 0.0, 0.0, 0.0, 0.0, 0.0, 0.0, 0.0, 0.0, 1.7695664202066956E9, 0.0, 2026-01-27 18:13:40.206
24.0, -13107.286466036614, -18956.380362079188, -32667.163928409092, -14466.00430798582, -14284.821067431101, -187500.02235174447, -187500.02235174447, -187500.02235174447, 0.038, -0.012, 0.992, 192.0, 0.0, 0.0, 0.0, 0.0, 0.0, 0.0, 0.0, 0.0, 0.0, 1.7695664202107654E9, 0.0, 2026-01-27 18:13:40.210
25.0, -13390.103088629616, -19241.90154575128, -35590.459178740886, -14754.185349248095, -14561.178035876517, -187500.02235174447, -187500.02235174447, -187500.02235174447, 0.038, -0.012, 0.992, 192.0, 0.0, 0.0, 0.0, 0.0, 0.0, 0.0, 0.0, 0.0, 0.0, 1.7695664202137537E9, 0.0, 2026-01-27 18:13:40.213
26.0, -13360.665841181975, -19195.186399839688, -35598.32699278915, -14710.018302204408, -14529.572669216714, -187500.02235174447, -187500.02235174447, -187500.02235174447, 0.038, -0.012, 0.992, 192.0, 0.0, 0.0, 0.0, 0.0, 0.0, 0.0, 0.0, 0.0, 0.0, 1.7695664202177596E9, 0.0, 2026-01-27 18:13:40.217
27.0, -13033.279840145093, -18879.98209953095, -32620.35937551968, -14370.405896950471, -14202.834868769036, -187500.02235174447, -187500.02235174447, -187500.02235174447, 0.038, -0.012, 0.992, 192.0, 0.0, 0.0, 0.0, 0.0, 0.0, 0.0, 0.0, 0.0, 0.0, 1.7695664202230203E9, 0.0, 2026-01-27 18:13:40.223
28.0, -13066.91921555033, -18912.302722013323, -32450.441414170436, -14415.981103894843, -14239.044694786633, -187500.02235174447, -187500.02235174447, -187500.02235174447, 0.042, -0.012, 0.994, 192.0, 1.0, 80.0, 255.0, 160.0, 31.0, 16.0, 0.0, 0.0, 0.0, 1.7695664202261229E9, 0.0, 2026-01-27 18:13:40.226
29.0, -13366.097315084615, -19218.834545473404, -35001.49071234354, -14735.275773438905, -14545.30829731325, -187500.02235174447, -187500.02235174447, -187500.02235174447, 0.042, -0.012, 0.994, 192.0, 0.0, 0.0, 0.0, 0.0, 0.0, 0.0, 0.0, 0.0, 0.0, 1.7695664202297647E9, 0.0, 2026-01-27 18:13:40.229
30.0, -13410.286713872758, -19250.23874643311, -36074.55326015392, -14781.87916062822, -14605.523896875848, -187500.02235174447, -187500.02235174447, -187500.02235174447, 0.042, -0.012, 0.994, 192.0, 0.0, 0.0, 0.0, 0.0, 0.0, 0.0, 0.0, 0.0, 0.0, 1.7695664202337773E9, 0.0, 2026-01-27 18:13:40.233
31.0, -13104.06781483505, -18955.41923706761, -32932.74735602705, -14467.613633586603, -14306.949294441856, -187500.02235174447, -187500.02235174447, -187500.02235174447, 0.042, -0.012, 0.994, 192.0, 0.0, 0.0, 0.0, 0.0, 0.0, 0.0, 0.0, 0.0, 0.0, 1.7695664202388496E9, 0.0, 2026-01-27 18:13:40.238
32.0, -13014.213802124716, -18872.11428548268, -32318.11908699502, -14389.85191462659, -14221.833851556046, -187500.02235174447, -187500.02235174447, -187500.02235174447, 0.042, -0.012, 0.994, 192.0, 0.0, 0.0, 0.0, 0.0, 0.0, 0.0, 0.0, 0.0, 0.0, 1.7695664202417648E9, 0.0, 2026-01-27 18:13:40.241
33.0, -13320.790329073709, -19183.831713656393, -34397.725391116786, -14717.7743575304, -14535.384122775093, -187500.02235174447, -187500.02235174447, -187500.02235174447, 0.042, -0.012, 0.994, 192.0, 0.0, 0.0, 0.0, 0.0, 0.0, 0.0, 0.0, 0.0, 0.0, 1.7695664202457604E9, 0.0, 2026-01-27 18:13:40.245
34.0, -13440.32745842069, -19295.121049299367, -36398.653554755874, -14848.532062593946, -14674.18845584255, -187500.02235174447, -187500.02235174447, -187500.02235174447, 0.042, -0.012, 0.994, 192.0, 0.0, 0.0, 0.0, 0.0, 0.0, 0.0, 0.0, 0.0, 0.0, 1.769566420249761E9, 0.0, 2026-01-27 18:13:40.249
35.0, -13172.7100220573, -19036.243145018, -33401.82106516613, -14581.026384952831, -14426.888755189033, -187500.02235174447, -187500.02235174447, -187500.02235174447, 0.042, -0.012, 0.994, 192.0, 0.0, 0.0, 0.0, 0.0, 0.0, 0.0, 0.0, 0.0, 0.0, 1.769566420254708E9, 0.0, 2026-01-27 18:13:40.254
36.0, -12994.052528626029, -18869.0520964923, -32241.497307002224, -14409.096766602608, -14252.500444948728, -187500.02235174447, -187500.02235174447, -187500.02235174447, 0.042, -0.012, 0.994, 192.0, 0.0, 0.0, 0.0, 0.0, 0.0, 0.0, 0.0, 0.0, 0.0, 1.7695664202577825E9, 0.0, 2026-01-27 18:13:40.257
37.0, -13284.178171655914, -19159.93769883367, -33797.31283155833, -14711.851145249742, -14536.948744886964, -187500.02235174447, -187500.02235174447, -187500.02235174447, 0.042, -0.012, 0.994, 192.0, 0.0, 0.0, 0.0, 0.0, 0.0, 0.0, 0.0, 0.0, 0.0, 1.7695664202618768E9, 0.0, 2026-01-27 18:13:40.261
38.0, -13446.407132912533, -19317.83042166596, -36539.8271727356, -14883.087859521851, -14707.939589970065, -187500.02235174447, -187500.02235174447, -187500.02235174447, 0.044, -0.018000000000000002, 0.998, 192.0, 1.0, 96.0, 255.0, 112.0, 31.0, 48.0, 0.0, 0.0, 0.0, 1.7695664202668073E9, 0.0, 2026-01-27 18:13:40.266
39.0, -13243.341534536068, -19111.724986043573, -34005.318165459415, -14670.388659285149, -14516.116919054619, -187500.02235174447, -187500.02235174447, -187500.02235174447, 0.044, -0.018000000000000002, 0.998, 192.0, 0.0, 0.0, 0.0, 0.0, 0.0, 0.0, 0.0, 0.0, 0.0, 1.7695664202697785E9, 0.0, 2026-01-27 18:13:40.269
40.0, -12998.09819437244, -18883.111343754692, -32224.152353304908, -14430.085054646142, -14281.468305762804, -187500.02235174447, -187500.02235174447, -187500.02235174447, 0.044, -0.018000000000000002, 0.998, 192.0, 0.0, 0.0, 0.0, 0.0, 0.0, 0.0, 0.0, 0.0, 0.0, 1.769566420273793E9, 0.0, 2026-01-27 18:13:40.273
41.0, -13235.674886187899, -19122.029140237468, -33308.390773342944, -14688.560627527313, -14521.749558657357, -187500.02235174447, -187500.02235174447, -187500.02235174447, 0.044, -0.018000000000000002, 0.998, 192.0, 0.0, 0.0, 0.0, 0.0, 0.0, 0.0, 0.0, 0.0, 0.0, 1.769566420277803E9, 0.0, 2026-01-27 18:13:40.277
42.0, -13441.489749132366, -19334.281305585064, -36455.87402056146, -14914.737929670566, -14721.708264554532, -187500.02235174447, -187500.02235174447, -187500.02235174447, 0.044, -0.018000000000000002, 0.998, 192.0, 0.0, 0.0, 0.0, 0.0, 0.0, 0.0, 0.0, 0.0, 0.0, 1.7695664202818177E9, 0.0, 2026-01-27 18:13:40.281
43.0, -13301.076090464127, -19183.13880957828, -34664.15818502405, -14765.763552875944, -14608.384920166127, -187500.02235174447, -187500.02235174447, -187500.02235174447, 0.044, -0.018000000000000002, 0.998, 192.0, 0.0, 0.0, 0.0, 0.0, 0.0, 0.0, 0.0, 0.0, 0.0, 1.7695664202858589E9, 0.0, 2026-01-27 18:13:40.285
44.0, -13011.57629627899, -18904.725480642974, -32266.799481725633, -14465.177293440975, -14327.199974918363, -187500.02235174447, -187500.02235174447, -187500.02235174447, 0.044, -0.018000000000000002, 0.998, 192.0, 0.0, 0.0, 0.0, 0.0, 0.0, 0.0, 0.0, 0.0, 0.0, 1.7695664202898154E9, 0.0, 2026-01-27 18:13:40.289
45.0, -13175.258120925204, -19062.77466568645, -32906.059373147415, -14636.726932135456, -14489.339529197161, -187500.02235174447, -187500.02235174447, -187500.02235174447, 0.044, -0.018000000000000002, 0.998, 192.0, 0.0, 0.0, 0.0, 0.0, 0.0, 0.0, 0.0, 0.0, 0.0, 1.769566420293856E9, 0.0, 2026-01-27 18:13:40.293
46.0, -13412.968923207394, -19306.162811060287, -36150.77270874652, -14890.195714258638, -14733.15235771565, -187500.02235174447, -187500.02235174447, -187500.02235174447, 0.044, -0.018000000000000002, 0.998, 192.0, 0.0, 0.0, 0.0, 0.0, 0.0, 0.0, 0.0, 0.0, 0.0, 1.7695664202968428E9, 0.0, 2026-01-27 18:13:40.296
47.0, -13340.571622916654, -19221.874382719325, -35325.27808252312, -14814.043320899407, -14675.127229109674, -187500.02235174447, -187500.02235174447, -187500.02235174447, 0.044, -0.018000000000000002, 0.998, 192.0, 0.0, 0.0, 0.0, 0.0, 0.0, 0.0, 0.0, 0.0, 0.0, 1.769566420301844E9, 0.0, 2026-01-27 18:13:40.301
48.0, -13025.926116219296, -18921.46693724, -32399.88176821253, -14492.267607720805, -14359.967632289843, -187500.02235174447, -187500.02235174447, -187500.02235174447, 0.046, -0.012, 0.992, 192.0, 1.0, 112.0, 255.0, 160.0, 31.0, 0.0, 0.0, 0.0, 0.0, 1.769566420305866E9, 0.0, 2026-01-27 18:13:40.305
49.0, -13101.564419456055, -18994.780659053406, -32593.98431706242, -14578.992376207398, -14429.61566801258, -187500.02235174447, -187500.02235174447, -187500.02235174447, 0.046, -0.012, 0.992, 192.0, 0.0, 0.0, 0.0, 0.0, 0.0, 0.0, 0.0, 0.0, 0.0, 1.7695664203098469E9, 0.0, 2026-01-27 18:13:40.309
50.0, -13378.882512913051, -19278.804275846993, -35634.67092927348, -14870.481475649058, -14707.179630658584, -187500.02235174447, -187500.02235174447, -187500.02235174447, 0.046, -0.012, 0.992, 192.0, 0.0, 0.0, 0.0, 0.0, 0.0, 0.0, 0.0, 0.0, 0.0, 1.7695664203138702E9, 0.0, 2026-01-27 18:13:40.313
51.0, -13373.942777388427, -19261.61578436086, -35919.11922921172, -14869.699164593121, -14726.715055312521, -187500.02235174447, -187500.02235174447, -187500.02235174447, 0.046, -0.012, 0.992, 192.0, 0.0, 0.0, 0.0, 0.0, 0.0, 0.0, 0.0, 0.0, 0.0, 1.7695664203178573E9, 0.0, 2026-01-27 18:13:40.317
52.0, -13067.992099284185, -18968.159731407133, -32648.120242133173, -14556.014782907341, -14422.239592342328, -187500.02235174447, -187500.02235174447, -187500.02235174447, 0.046, -0.012, 0.992, 192.0, 0.0, 0.0, 0.0, 0.0, 0.0, 0.0, 0.0, 0.0, 0.0, 1.7695664203219185E9, 0.0, 2026-01-27 18:13:40.321
53.0, -13032.050494200052, -18931.279353055877, -32374.132558600017, -14522.30835226874, -14376.686737142414, -187500.02235174447, -187500.02235174447, -187500.02235174447, 0.046, -0.012, 0.992, 192.0, 0.0, 0.0, 0.0, 0.0, 0.0, 0.0, 0.0, 0.0, 0.0, 1.7695664203249147E9, 0.0, 2026-01-27 18:13:40.324
54.0, -13330.625096634043, -19233.653752047274, -35025.89881728874, -14829.421321084657, -14670.746287196433, -187500.02235174447, -187500.02235174447, -187500.02235174447, 0.046, -0.012, 0.992, 192.0, 0.0, 0.0, 0.0, 0.0, 0.0, 0.0, 0.0, 0.0, 0.0, 1.7695664203299255E9, 0.0, 2026-01-27 18:13:40.329
55.0, -13392.204152608414, -19276.412639190276, -36414.21036889677, -14883.512542666502, -14735.34282867227, -187500.02235174447, -187500.02235174447, -187500.02235174447, 0.046, -0.012, 0.992, 192.0, 0.0, 0.0, 0.0, 0.0, 0.0, 0.0, 0.0, 0.0, 0.0, 1.7695664203338425E9, 0.0, 2026-01-27 18:13:40.333
56.0, -13127.604201746488, -19010.359824938754, -33016.61110122337, -14594.862114770665, -14462.517435850792, -187500.02235174447, -187500.02235174447, -187500.02235174447, 0.046, -0.012, 0.992, 192.0, 0.0, 0.0, 0.0, 0.0, 0.0, 0.0, 0.0, 0.0, 0.0, 1.769566420337896E9, 0.0, 2026-01-27 18:13:40.337
57.0, -13001.741528718654, -18889.92862581356, -32146.010654689155, -14465.914901008, -14325.635352806492, -187500.02235174447, -187500.02235174447, -187500.02235174447, 0.046, -0.012, 0.992, 192.0, 0.0, 0.0, 0.0, 0.0, 0.0, 0.0, 0.0, 0.0, 0.0, 1.7695664203419201E9, 0.0, 2026-01-27 18:13:40.341
58.0, -13267.928453436907, -19154.483873186575, -34380.112216486006, -14736.594526361767, -14577.628919795623, -187500.02235174447, -187500.02235174447, -187500.02235174447, 0.052000000000000005, -0.014, 0.996, 192.0, 1.0, 160.0, 255.0, 144.0, 31.0, 32.0, 0.0, 0.0, 0.0, 1.7695664203459027E9, 0.0, 2026-01-27 18:13:40.345
59.0, -13395.132231132058, -19268.589528630917, -36728.16297151601, -14863.328917423358, -14707.179630658584, -187500.02235174447, -187500.02235174447, -187500.02235174447, 0.052000000000000005, -0.014, 0.996, 192.0, 0.0, 0.0, 0.0, 0.0, 0.0, 0.0, 0.0, 0.0, 0.0, 1.769566420349892E9, 0.0, 2026-01-27 18:13:40.349
60.0, -13190.502010643722, -19059.3995522737, -33538.479630765876, -14638.984458325442, -14499.084889779675, -187500.02235174447, -187500.02235174447, -187500.02235174447, 0.052000000000000005, -0.014, 0.996, 192.0, 0.0, 0.0, 0.0, 0.0, 0.0, 0.0, 0.0, 0.0, 0.0, 1.7695664203528888E9, 0.0, 2026-01-27 18:13:40.352
61.0, -12983.256636054115, -18868.381544158645, -31994.24230983762, -14435.181252381952, -14294.834648947079, -187500.02235174447, -187500.02235174447, -187500.02235174447, 0.052000000000000005, -0.014, 0.996, 192.0, 0.0, 0.0, 0.0, 0.0, 0.0, 0.0, 0.0, 0.0, 0.0, 1.769566420356914E9, 0.0, 2026-01-27 18:13:40.356
62.0, -13208.606923652522, -19100.526762071462, -33759.04664505085, -14676.311871565804, -14510.707796896435, -187500.02235174447, -187500.02235174447, -187500.02235174447, 0.052000000000000005, -0.014, 0.996, 192.0, 0.0, 0.0, 0.0, 0.0, 0.0, 0.0, 0.0, 0.0, 0.0, 1.7695664203619134E9, 0.0, 2026-01-27 18:13:40.361
63.0, -13389.186667106947, -19276.345583956907, -36856.774909111846, -14863.865359290287, -14699.445927077048, -187500.02235174447, -187500.02235174447, -187500.02235174447, 0.052000000000000005, -0.014, 0.996, 192.0, 0.0, 0.0, 0.0, 0.0, 0.0, 0.0, 0.0, 0.0, 0.0, 1.7695664203659227E9, 0.0, 2026-01-27 18:13:40.365
64.0, -13253.533930007688, -19130.209878708112, -34192.446970039244, -14718.891944753164, -14572.488018570903, -187500.02235174447, -187500.02235174447, -187500.02235174447, 0.052000000000000005, -0.014, 0.996, 192.0, 0.0, 0.0, 0.0, 0.0, 0.0, 0.0, 0.0, 0.0, 0.0, 1.7695664203702216E9, 0.0, 2026-01-27 18:13:40.370
65.0, -12998.589932750456, -18893.460201437498, -31877.20857586963, -14466.272528919284, -14324.69657953937, -187500.02235174447, -187500.02235174447, -187500.02235174447, 0.052000000000000005, -0.014, 0.996, 192.0, 0.0, 0.0, 0.0, 0.0, 0.0, 0.0, 0.0, 0.0, 0.0, 1.7695664203739595E9, 0.0, 2026-01-27 18:13:40.373
66.0, -13159.298975384114, -19055.644459205207, -33174.32501010001, -14639.811472870288, -14484.645662861547, -187500.02235174447, -187500.02235174447, -187500.02235174447, 0.052000000000000005, -0.014, 0.996, 192.0, 0.0, 0.0, 0.0, 0.0, 0.0, 0.0, 0.0, 0.0, 0.0, 1.769566420377909E9, 0.0, 2026-01-27 18:13:40.377
67.0, -13360.487027226332, -19253.926784268235, -36771.57005924822, -14846.878033504252, -14677.854141933221, -187500.02235174447, -187500.02235174447, -187500.02235174447, 0.052000000000000005, -0.014, 0.996, 192.0, 0.0, 0.0, 0.0, 0.0, 0.0, 0.0, 0.0, 0.0, 0.0, 1.7695664203809874E9, 0.0, 2026-01-27 18:13:40.380
68.0, -13317.549326127688, -19189.95609163715, -34950.26051405198, -14785.5895502078, -14635.296420490316, -187500.02235174447, -187500.02235174447, -187500.02235174447, 0.054, -0.012, 0.994, 192.0, 1.0, 176.0, 255.0, 160.0, 31.0, 16.0, 0.0, 0.0, 0.0, 1.769566420384942E9, 0.0, 2026-01-27 18:13:40.384
69.0, -13049.641317086378, -18935.66029496912, -31792.227243450554, -14507.846773606156, -14367.164894004452, -187500.02235174447, -187500.02235174447, -187500.02235174447, 0.054, -0.012, 0.994, 192.0, 0.0, 0.0, 0.0, 0.0, 0.0, 0.0, 0.0, 0.0, 0.0, 1.769566420389969E9, 0.0, 2026-01-27 18:13:40.389
70.0, -13105.677140435833, -18994.780659053406, -32621.298148786802, -14575.55020756128, -14421.747853964313, -187500.02235174447, -187500.02235174447, -187500.02235174447, 0.054, -0.012, 0.994, 192.0, 0.0, 0.0, 0.0, 0.0, 0.0, 0.0, 0.0, 0.0, 0.0, 1.7695664203939655E9, 0.0, 2026-01-27 18:13:40.393
71.0, -13295.44345086139, -19186.826847413406, -36673.043569689224, -14771.753820389966, -14608.474327143947, -187500.02235174447, -187500.02235174447, -187500.02235174447, 0.054, -0.012, 0.994, 192.0, 0.0, 0.0, 0.0, 0.0, 0.0, 0.0, 0.0, 0.0, 0.0, 1.769566420397967E9, 0.0, 2026-01-27 18:13:40.397
72.0, -13312.296666180691, -19174.019297840514, -36230.79195389652, -14769.54099768889, -14622.332408706237, -187500.02235174447, -187500.02235174447, -187500.02235174447, 0.054, -0.012, 0.994, 192.0, 0.0, 0.0, 0.0, 0.0, 0.0, 0.0, 0.0, 0.0, 0.0, 1.7695664204009373E9, 0.0, 2026-01-27 18:13:40.400
73.0, -13167.993803977228, -19031.772796126937, -31672.243079214466, -14609.614266111168, -14469.267662676295, -187500.02235174447, -187500.02235174447, -187500.02235174447, 0.054, -0.012, 0.994, 192.0, 0.0, 0.0, 0.0, 0.0, 0.0, 0.0, 0.0, 0.0, 0.0, 1.769566420405013E9, 0.0, 2026-01-27 18:13:40.405
74.0, -13162.294109141125, -19046.793168400905, -31023.95308303274, -14616.588010381223, -14463.590319584648, -187500.02235174447, -187500.02235174447, -187500.02235174447, 0.054, -0.012, 0.994, 192.0, 0.0, 0.0, 0.0, 0.0, 0.0, 0.0, 0.0, 0.0, 0.0, 1.769566420408973E9, 0.0, 2026-01-27 18:13:40.408
75.0, -13209.299827730636, -19116.485907612554, -35808.03105926884, -14669.85221741822, -14500.962436313921, -187500.02235174447, -187500.02235174447, -187500.02235174447, 0.054, -0.012, 0.994, 192.0, 0.0, 0.0, 0.0, 0.0, 0.0, 0.0, 0.0, 0.0, 0.0, 1.769566420412965E9, 0.0, 2026-01-27 18:13:40.412
76.0, -13222.465005214812, -19097.419869592177, -37735.73490807234, -14664.532502237858, -14505.611599160624, -187500.02235174447, -187500.02235174447, -187500.02235174447, 0.054, -0.012, 0.994, 192.0, 0.0, 0.0, 0.0, 0.0, 0.0, 0.0, 0.0, 0.0, 0.0, 1.7695664204179688E9, 0.0, 2026-01-27 18:13:40.417
77.0, -13217.90524934593, -19076.43158154864, -32576.415845920546, -14637.933926336042, -14489.339529197161, -187500.02235174447, -187500.02235174447, -187500.02235174447, 0.054, -0.012, 0.994, 192.0, 0.0, 0.0, 0.0, 0.0, 0.0, 0.0, 0.0, 0.0, 0.0, 1.7695664204219832E9, 0.0, 2026-01-27 18:13:40.421
78.0, -13226.801243639142, -19102.761936516996, -30197.474980053306, -14654.071885832775, -14497.833192090178, -187500.02235174447, -187500.02235174447, -187500.02235174447, 0.046, -0.018000000000000002, 0.994, 192.0, 1.0, 112.0, 255.0, 112.0, 31.0, 16.0, 0.0, 0.0, 0.0, 1.7695664204260013E9, 0.0, 2026-01-27 18:13:40.426
79.0, -13193.385385678457, -19102.560770816897, -34590.84446321064, -14637.464539702481, -14471.279319677273, -187500.02235174447, -187500.02235174447, -187500.02235174447, 0.046, -0.018000000000000002, 0.994, 192.0, 0.0, 0.0, 0.0, 0.0, 0.0, 0.0, 0.0, 0.0, 0.0, 1.7695664204289963E9, 0.0, 2026-01-27 18:13:40.428
80.0, -13166.026850465161, -19050.548261469397, -38520.86228380946, -14604.182792208529, -14444.14430190853, -187500.02235174447, -187500.02235174447, -187500.02235174447, 0.046, -0.018000000000000002, 0.994, 192.0, 0.0, 0.0, 0.0, 0.0, 0.0, 0.0, 0.0, 0.0, 0.0, 1.7695664204329755E9, 0.0, 2026-01-27 18:13:40.432
81.0, -13223.515537204212, -19073.503503024996, -33758.599610161735, -14639.632658914645, -14493.407546688028, -187500.02235174447, -187500.02235174447, -187500.02235174447, 0.046, -0.018000000000000002, 0.994, 192.0, 0.0, 0.0, 0.0, 0.0, 0.0, 0.0, 0.0, 0.0, 0.0, 1.7695664204369967E9, 0.0, 2026-01-27 18:13:40.436
82.0, -13257.24431958727, -19119.279875669465, -29938.59707577194, -14680.066964634296, -14527.784529660288, -187500.02235174447, -187500.02235174447, -187500.02235174447, 0.046, -0.018000000000000002, 0.994, 192.0, 0.0, 0.0, 0.0, 0.0, 0.0, 0.0, 0.0, 0.0, 0.0, 1.7695664204409947E9, 0.0, 2026-01-27 18:13:40.440
83.0, -13206.014121295706, -19103.54424757293, -33315.677442035376, -14649.243909030427, -14487.104354751631, -187500.02235174447, -187500.02235174447, -187500.02235174447, 0.046, -0.018000000000000002, 0.994, 192.0, 0.0, 0.0, 0.0, 0.0, 0.0, 0.0, 0.0, 0.0, 0.0, 1.7695664204459724E9, 0.0, 2026-01-27 18:13:40.445
84.0, -13149.285393868136, -19033.404473472176, -38644.288616691665, -14596.672606071545, -14440.702133262414, -187500.02235174447, -187500.02235174447, -187500.02235174447, 0.046, -0.018000000000000002, 0.994, 192.0, 0.0, 0.0, 0.0, 0.0, 0.0, 0.0, 0.0, 0.0, 0.0, 1.7695664204499912E9, 0.0, 2026-01-27 18:13:40.449
85.0, -13211.646760898444, -19053.833967904327, -34895.85636804776, -14643.99124908343, -14496.49208742286, -187500.02235174447, -187500.02235174447, -187500.02235174447, 0.046, -0.018000000000000002, 0.994, 192.0, 0.0, 0.0, 0.0, 0.0, 0.0, 0.0, 0.0, 0.0, 0.0, 1.7695664204540768E9, 0.0, 2026-01-27 18:13:40.454
86.0, -13255.34442130857, -19106.405270863208, -30053.70855971677, -14694.752060741434, -14543.430750779004, -187500.02235174447, -187500.02235174447, -187500.02235174447, 0.046, -0.018000000000000002, 0.994, 192.0, 0.0, 0.0, 0.0, 0.0, 0.0, 0.0, 0.0, 0.0, 0.0, 1.7695664204570584E9, 0.0, 2026-01-27 18:13:40.457
87.0, -13211.579705665077, -19104.63948305124, -32165.769596787646, -14671.640356974645, -14508.472622450903, -187500.02235174447, -187500.02235174447, -187500.02235174447, 0.046, -0.018000000000000002, 0.994, 192.0, 0.0, 0.0, 0.0, 0.0, 0.0, 0.0, 0.0, 0.0, 0.0, 1.7695664204610274E9, 0.0, 2026-01-27 18:13:40.461
88.0, -13127.201870346293, -19025.71547337955, -38329.75486871658, -14592.023443224842, -14431.001476168809, -187500.02235174447, -187500.02235174447, -187500.02235174447, 0.05, -0.006, 0.994, 192.0, 1.0, 144.0, 255.0, 208.0, 31.0, 16.0, 0.0, 0.0, 0.0, 1.7695664204654033E9, 0.0, 2026-01-27 18:13:40.465
89.0, -13186.679862341865, -19040.86995612025, -36042.76907953848, -14630.557850665791, -14482.365784927106, -187500.02235174447, -187500.02235174447, -187500.02235174447, 0.05, -0.006, 0.994, 192.0, 0.0, 0.0, 0.0, 0.0, 0.0, 0.0, 0.0, 0.0, 0.0, 1.7695664204690447E9, 0.0, 2026-01-27 18:13:40.469
90.0, -13248.504787505244, -19105.421794107177, -30467.752274006878, -14688.135944382662, -14538.513366998837, -187500.02235174447, -187500.02235174447, -187500.02235174447, 0.05, -0.006, 0.994, 192.0, 0.0, 0.0, 0.0, 0.0, 0.0, 0.0, 0.0, 0.0, 0.0, 1.76956642047304E9, 0.0, 2026-01-27 18:13:40.473
91.0, -13222.263839514713, -19122.67734082667, -31220.782544706173, -14686.481915292969, -14523.627105191603, -187500.02235174447, -187500.02235174447, -187500.02235174447, 0.05, -0.006, 0.994, 192.0, 0.0, 0.0, 0.0, 0.0, 0.0, 0.0, 0.0, 0.0, 0.0, 1.7695664204780312E9, 0.0, 2026-01-27 18:13:40.478
92.0, -13121.904506910385, -19042.881613121226, -37653.70400592137, -14601.344120662705, -14433.683685503447, -187500.02235174447, -187500.02235174447, -187500.02235174447, 0.05, -0.006, 0.994, 192.0, 0.0, 0.0, 0.0, 0.0, 0.0, 0.0, 0.0, 0.0, 0.0, 1.76956642048245E9, 0.0, 2026-01-27 18:13:40.482
93.0, -13166.22801616526, -19034.656171161674, -37084.31566766687, -14620.410158683082, -14464.171464940486, -187500.02235174447, -187500.02235174447, -187500.02235174447, 0.05, -0.006, 0.994, 192.0, 0.0, 0.0, 0.0, 0.0, 0.0, 0.0, 0.0, 0.0, 0.0, 1.769566420485052E9, 0.0, 2026-01-27 18:13:40.485
94.0, -13238.401799011446, -19097.151648658713, -31127.44165986081, -14679.038784389351, -14526.845756393166, -187500.02235174447, -187500.02235174447, -187500.02235174447, 0.05, -0.006, 0.994, 192.0, 0.0, 0.0, 0.0, 0.0, 0.0, 0.0, 0.0, 0.0, 0.0, 1.769566420489586E9, 0.0, 2026-01-27 18:13:40.489
95.0, -13233.730284420286, -19123.54905886043, -30512.18754198403, -14688.694737994045, -14525.459948236938, -187500.02235174447, -187500.02235174447, -187500.02235174447, 0.05, -0.006, 0.994, 192.0, 0.0, 0.0, 0.0, 0.0, 0.0, 0.0, 0.0, 0.0, 0.0, 1.7695664204930675E9, 0.0, 2026-01-27 18:13:40.493
96.0, -13133.370951815958, -19048.804825401883, -36647.42847054344, -14597.454917127481, -14427.022865655765, -187500.02235174447, -187500.02235174447, -187500.02235174447, 0.05, -0.006, 0.994, 192.0, 0.0, 0.0, 0.0, 0.0, 0.0, 0.0, 0.0, 0.0, 0.0, 1.7695664204970868E9, 0.0, 2026-01-27 18:13:40.497
97.0, -13148.771303745665, -19018.786432598405, -37892.68885763751, -14593.118678703151, -14435.293011104228, -187500.02235174447, -187500.02235174447, -187500.02235174447, 0.05, -0.006, 0.994, 192.0, 0.0, 0.0, 0.0, 0.0, 0.0, 0.0, 0.0, 0.0, 0.0, 1.7695664205010872E9, 0.0, 2026-01-27 18:13:40.501
98.0, -13229.774025651697, -19077.191540860123, -31956.065530307955, -14649.154502052606, -14499.666035135513, -187500.02235174447, -187500.02235174447, -187500.02235174447, 0.05, -0.012, 0.996, 192.0, 1.0, 144.0, 255.0, 160.0, 31.0, 32.0, 0.0, 0.0, 0.0, 1.7695664205064983E9, 0.0, 2026-01-27 18:13:40.506
99.0, -13247.923642149406, -19117.98347449106, -30042.264466555655, -14674.85900817621, -14513.613523675624, -187500.02235174447, -187500.02235174447, -187500.02235174447, 0.05, -0.012, 0.996, 192.0, 0.0, 0.0, 0.0, 0.0, 0.0, 0.0, 0.0, 0.0, 0.0, 1.76956642050907E9, 0.0, 2026-01-27 18:13:40.509
100.0, -13155.387420104435, -19059.801883673892, -35435.60629315452, -14597.36551014966, -14427.514604033782, -187500.02235174447, -187500.02235174447, -187500.02235174447, 0.05, -0.012, 0.996, 192.0, 0.0, 0.0, 0.0, 0.0, 0.0, 0.0, 0.0, 0.0, 0.0, 1.7695664205134408E9, 0.0, 2026-01-27 18:13:40.513
101.0, -13135.427312305846, -19005.95653128106, -38434.94217812326, -14561.803884721267, -14407.08510960163, -187500.02235174447, -187500.02235174447, -187500.02235174447, 0.05, -0.012, 0.996, 192.0, 0.0, 0.0, 0.0, 0.0, 0.0, 0.0, 0.0, 0.0, 0.0, 1.769566420517116E9, 0.0, 2026-01-27 18:13:40.517
102.0, -13223.42613022639, -19065.3004128099, -32896.44812303163, -14624.388769196126, -14482.410488416015, -187500.02235174447, -187500.02235174447, -187500.02235174447, 0.05, -0.012, 0.996, 192.0, 0.0, 0.0, 0.0, 0.0, 0.0, 0.0, 0.0, 0.0, 0.0, 1.7695664205211172E9, 0.0, 2026-01-27 18:13:40.521
103.0, -13251.589328240078, -19114.362491889297, -29802.43024855021, -14660.978574869463, -14510.48427945188, -187500.02235174447, -187500.02235174447, -187500.02235174447, 0.05, -0.012, 0.996, 192.0, 0.0, 0.0, 0.0, 0.0, 0.0, 0.0, 0.0, 0.0, 0.0, 1.7695664205251486E9, 0.0, 2026-01-27 18:13:40.525
104.0, -13175.593397092032, -19080.365488572777, -34176.21960356469, -14607.401443410094, -14443.205528641407, -187500.02235174447, -187500.02235174447, -187500.02235174447, 0.05, -0.012, 0.996, 192.0, 0.0, 0.0, 0.0, 0.0, 0.0, 0.0, 0.0, 0.0, 0.0, 1.7695664205291157E9, 0.0, 2026-01-27 18:13:40.529
105.0, -13136.32138208406, -19021.37923495522, -38698.37983827351, -14567.727097001924, -14413.164784093475, -187500.02235174447, -187500.02235174447, -187500.02235174447, 0.05, -0.012, 0.996, 192.0, 0.0, 0.0, 0.0, 0.0, 0.0, 0.0, 0.0, 0.0, 0.0, 1.769566420534132E9, 0.0, 2026-01-27 18:13:40.534
106.0, -13212.496127187746, -19062.215872075067, -34063.70092197668, -14625.104025018696, -14473.067459233698, -187500.02235174447, -187500.02235174447, -187500.02235174447, 0.05, -0.012, 0.996, 192.0, 0.0, 0.0, 0.0, 0.0, 0.0, 0.0, 0.0, 0.0, 0.0, 1.7695664205382264E9, 0.0, 2026-01-27 18:13:40.538
107.0, -13251.544624751166, -19114.720119800582, -29856.744987576603, -14674.233159331461, -14524.565878458725, -187500.02235174447, -187500.02235174447, -187500.02235174447, 0.05, -0.012, 0.996, 192.0, 0.0, 0.0, 0.0, 0.0, 0.0, 0.0, 0.0, 0.0, 0.0, 1.7695664205411308E9, 0.0, 2026-01-27 18:13:40.541
108.0, -13189.94321703234, -19093.91064571269, -32981.29534498398, -14633.441225700526, -14468.731220809368, -187500.02235174447, -187500.02235174447, -187500.02235174447, 0.05, -0.016, 0.988, 192.0, 1.0, 144.0, 255.0, 128.0, 30.0, 224.0, 0.0, 0.0, 0.0, 1.769566420545109E9, 0.0, 2026-01-27 18:13:40.545
109.0, -13123.625591233444, -19023.457947189563, -38622.07098270309, -14571.258672625861, -14409.052063113699, -187500.02235174447, -187500.02235174447, -187500.02235174447, 0.05, -0.016, 0.988, 192.0, 0.0, 0.0, 0.0, 0.0, 0.0, 0.0, 0.0, 0.0, 0.0, 1.7695664205491662E9, 0.0, 2026-01-27 18:13:40.549
110.0, -13193.407737422913, -19053.699857437594, -35188.84303436793, -14623.539402906825, -14478.655395347525, -187500.02235174447, -187500.02235174447, -187500.02235174447, 0.05, -0.016, 0.988, 192.0, 0.0, 0.0, 0.0, 0.0, 0.0, 0.0, 0.0, 0.0, 0.0, 1.769566420553197E9, 0.0, 2026-01-27 18:13:40.553
111.0, -13241.598098468554, -19109.243942409033, -30098.23323467174, -14676.04365063234, -14527.248087793361, -187500.02235174447, -187500.02235174447, -187500.02235174447, 0.05, -0.016, 0.988, 192.0, 0.0, 0.0, 0.0, 0.0, 0.0, 0.0, 0.0, 0.0, 0.0, 1.769566420557295E9, 0.0, 2026-01-27 18:13:40.557
112.0, -13203.42131893889, -19106.517029585484, -31914.759506554547, -14655.077714333263, -14493.943988554955, -187500.02235174447, -187500.02235174447, -187500.02235174447, 0.05, -0.016, 0.988, 192.0, 0.0, 0.0, 0.0, 0.0, 0.0, 0.0, 0.0, 0.0, 0.0, 1.7695664205621347E9, 0.0, 2026-01-27 18:13:40.562
113.0, -13117.702378952788, -19029.068235047846, -38225.3722221103, -14578.344175618193, -14412.404824781994, -187500.02235174447, -187500.02235174447, -187500.02235174447, 0.05, -0.016, 0.988, 192.0, 0.0, 0.0, 0.0, 0.0, 0.0, 0.0, 0.0, 0.0, 0.0, 1.7695664205651412E9, 0.0, 2026-01-27 18:13:40.565
114.0, -13175.816914536586, -19042.032246831925, -36332.179466745794, -14616.900934803598, -14468.06066847571, -187500.02235174447, -187500.02235174447, -187500.02235174447, 0.05, -0.016, 0.988, 192.0, 0.0, 0.0, 0.0, 0.0, 0.0, 0.0, 0.0, 0.0, 0.0, 1.7695664205681884E9, 0.0, 2026-01-27 18:13:40.568
115.0, -13238.737075178275, -19101.890218483237, -30554.38763551565, -14676.133057610163, -14530.064407594731, -187500.02235174447, -187500.02235174447, -187500.02235174447, 0.05, -0.016, 0.988, 192.0, 0.0, 0.0, 0.0, 0.0, 0.0, 0.0, 0.0, 0.0, 0.0, 1.769566420573177E9, 0.0, 2026-01-27 18:13:40.573
116.0, -13215.088929544561, -19115.815355278894, -30984.971640702683, -14675.864836676697, -14517.547430699758, -187500.02235174447, -187500.02235174447, -187500.02235174447, 0.05, -0.016, 0.988, 192.0, 0.0, 0.0, 0.0, 0.0, 0.0, 0.0, 0.0, 0.0, 0.0, 1.769566420577223E9, 0.0, 2026-01-27 18:13:40.577
117.0, -13118.283524308627, -19041.33934275381, -37447.12918366542, -14590.950559490986, -14425.547650521714, -187500.02235174447, -187500.02235174447, -187500.02235174447, 0.05, -0.016, 0.988, 192.0, 0.0, 0.0, 0.0, 0.0, 0.0, 0.0, 0.0, 0.0, 0.0, 1.769566420581188E9, 0.0, 2026-01-27 18:13:40.581
118.0, -13156.348545116014, -19032.19747927159, -37340.28784516905, -14605.210972453473, -14452.14622642353, -187500.02235174447, -187500.02235174447, -187500.02235174447, 0.052000000000000005, -0.01, 0.988, 192.0, 1.0, 160.0, 255.0, 176.0, 30.0, 224.0, 0.0, 0.0, 0.0, 1.76956642058521E9, 0.0, 2026-01-27 18:13:40.585
119.0, -13238.312392033624, -19098.20218064811, -31224.671748241395, -14667.751153439422, -14519.02264583381, -187500.02235174447, -187500.02235174447, -187500.02235174447, 0.052000000000000005, -0.01, 0.988, 192.0, 0.0, 0.0, 0.0, 0.0, 0.0, 0.0, 0.0, 0.0, 0.0, 1.769566420590198E9, 0.0, 2026-01-27 18:13:40.590
120.0, -13230.846909385553, -19123.817279793893, -30300.248301058808, -14677.831790188766, -14513.34530274216, -187500.02235174447, -187500.02235174447, -187500.02235174447, 0.052000000000000005, -0.01, 0.988, 192.0, 0.0, 0.0, 0.0, 0.0, 0.0, 0.0, 0.0, 0.0, 0.0, 1.7695664205931747E9, 0.0, 2026-01-27 18:13:40.593
121.0, -13121.055140621083, -19047.73194166803, -36471.38613121345, -14586.167286177551, -14410.750795692302, -187500.02235174447, -187500.02235174447, -187500.02235174447, 0.052000000000000005, -0.01, 0.988, 192.0, 0.0, 0.0, 0.0, 0.0, 0.0, 0.0, 0.0, 0.0, 0.0, 1.7695664205971773E9, 0.0, 2026-01-27 18:13:40.597
122.0, -13146.759646744687, -19030.454043204074, -38226.75803026653, -14595.376204893138, -14433.907202948, -187500.02235174447, -187500.02235174447, -187500.02235174447, 0.052000000000000005, -0.01, 0.988, 192.0, 0.0, 0.0, 0.0, 0.0, 0.0, 0.0, 0.0, 0.0, 0.0, 1.7695664206012225E9, 0.0, 2026-01-27 18:13:40.601
123.0, -13248.5271392497, -19105.958235974103, -32104.525816980105, -14676.535389010358, -14521.704855168446, -187500.02235174447, -187500.02235174447, -187500.02235174447, 0.052000000000000005, -0.01, 0.988, 192.0, 0.0, 0.0, 0.0, 0.0, 0.0, 0.0, 0.0, 0.0, 0.0, 1.769566420605327E9, 0.0, 2026-01-27 18:13:40.605
124.0, -13252.662211973931, -19137.228326467077, -29790.27089956652, -14694.90852295262, -14527.15868081554, -187500.02235174447, -187500.02235174447, -187500.02235174447, 0.052000000000000005, -0.01, 0.988, 192.0, 0.0, 0.0, 0.0, 0.0, 0.0, 0.0, 0.0, 0.0, 0.0, 1.7695664206092083E9, 0.0, 2026-01-27 18:13:40.609
125.0, -13149.441856079324, -19075.761029214984, -35213.564063735495, -14612.967027779465, -14433.638982014536, -187500.02235174447, -187500.02235174447, -187500.02235174447, 0.052000000000000005, -0.01, 0.988, 192.0, 0.0, 0.0, 0.0, 0.0, 0.0, 0.0, 0.0, 0.0, 0.0, 1.769566420613247E9, 0.0, 2026-01-27 18:13:40.613
126.0, -13126.732483712733, -19019.300522720878, -38789.217327739876, -14578.858265740666, -14414.505888760792, -187500.02235174447, -187500.02235174447, -187500.02235174447, 0.052000000000000005, -0.01, 0.988, 192.0, 0.0, 0.0, 0.0, 0.0, 0.0, 0.0, 0.0, 0.0, 0.0, 1.769566420617247E9, 0.0, 2026-01-27 18:13:40.617
127.0, -13225.773063394197, -19086.40045957571, -33156.980056402695, -14654.273051532871, -14499.800145602245, -187500.02235174447, -187500.02235174447, -187500.02235174447, 0.052000000000000005, -0.01, 0.988, 192.0, 0.0, 0.0, 0.0, 0.0, 0.0, 0.0, 0.0, 0.0, 0.0, 1.769566420620726E9, 0.0, 2026-01-27 18:13:40.620
128.0, -13252.930432907395, -19137.29538170044, -29541.719501223506, -14695.355557841725, -14526.085797081685, -187500.02235174447, -187500.02235174447, -187500.02235174447, 0.054, -0.01, 0.99, 192.0, 1.0, 176.0, 255.0, 176.0, 30.0, 240.0, 0.0, 0.0, 0.0, 1.7695664206243007E9, 0.0, 2026-01-27 18:13:40.624
129.0, -13155.208606148793, -19081.05839265089, -33961.285228882465, -14616.632713870134, -14437.751702994312, -187500.02235174447, -187500.02235174447, -187500.02235174447, 0.054, -0.01, 0.99, 192.0, 0.0, 0.0, 0.0, 0.0, 0.0, 0.0, 0.0, 0.0, 0.0, 1.7695664206292295E9, 0.0, 2026-01-27 18:13:40.629
130.0, -13093.338977496504, -18999.80980155585, -39096.196186089066, -14551.052695638264, -14382.31937674515, -187500.02235174447, -187500.02235174447, -187500.02235174447, 0.054, -0.01, 0.99, 192.0, 0.0, 0.0, 0.0, 0.0, 0.0, 0.0, 0.0, 0.0, 0.0, 1.7695664206332633E9, 0.0, 2026-01-27 18:13:40.633
131.0, -13208.47281318579, -19071.82712219085, -34325.93158792634, -14641.219632770972, -14485.182104728474, -187500.02235174447, -187500.02235174447, -187500.02235174447, 0.054, -0.01, 0.99, 192.0, 0.0, 0.0, 0.0, 0.0, 0.0, 0.0, 0.0, 0.0, 0.0, 1.769566420637287E9, 0.0, 2026-01-27 18:13:40.637
132.0, -13267.459066803345, -19145.029085281978, -29449.58561057873, -14707.961941714519, -14544.995372890875, -187500.02235174447, -187500.02235174447, -187500.02235174447, 0.054, -0.01, 0.99, 192.0, 0.0, 0.0, 0.0, 0.0, 0.0, 0.0, 0.0, 0.0, 0.0, 1.769566420641266E9, 0.0, 2026-01-27 18:13:40.641
133.0, -13172.732373801753, -19096.414041091688, -32689.739190308952, -14639.297382747816, -14462.785656784255, -187500.02235174447, -187500.02235174447, -187500.02235174447, 0.054, -0.01, 0.99, 192.0, 0.0, 0.0, 0.0, 0.0, 0.0, 0.0, 0.0, 0.0, 0.0, 1.7695664206453044E9, 0.0, 2026-01-27 18:13:40.645
134.0, -13090.50030595068, -19008.52698189342, -39071.9221916106, -14558.518178286336, -14384.778068635234, -187500.02235174447, -187500.02235174447, -187500.02235174447, 0.054, -0.01, 0.99, 192.0, 0.0, 0.0, 0.0, 0.0, 0.0, 0.0, 0.0, 0.0, 0.0, 1.769566420648347E9, 0.0, 2026-01-27 18:13:40.648
135.0, -13193.85477231202, -19064.473398265054, -35653.58050508267, -14637.553946680302, -14481.427011659982, -187500.02235174447, -187500.02235174447, -187500.02235174447, 0.054, -0.01, 0.99, 192.0, 0.0, 0.0, 0.0, 0.0, 0.0, 0.0, 0.0, 0.0, 0.0, 1.7695664206522703E9, 0.0, 2026-01-27 18:13:40.652
136.0, -13284.468744333833, -19157.479006943584, -29570.910879482137, -14721.48474710998, -14565.335460345204, -187500.02235174447, -187500.02235174447, -187500.02235174447, 0.054, -0.01, 0.99, 192.0, 0.0, 0.0, 0.0, 0.0, 0.0, 0.0, 0.0, 0.0, 0.0, 1.7695664206572986E9, 0.0, 2026-01-27 18:13:40.657
137.0, -13207.466984685301, -19124.130204216268, -31367.365284844076, -14661.827941158766, -14486.478505906882, -187500.02235174447, -187500.02235174447, -187500.02235174447, 0.054, -0.01, 0.99, 192.0, 0.0, 0.0, 0.0, 0.0, 0.0, 0.0, 0.0, 0.0, 0.0, 1.76956642066128E9, 0.0, 2026-01-27 18:13:40.661
138.0, -13071.657785374855, -19000.81563005634, -38570.79608092261, -14533.126596585107, -14354.334992687107, -187500.02235174447, -187500.02235174447, -187500.02235174447, 0.05, -0.016, 0.99, 192.0, 1.0, 144.0, 255.0, 128.0, 30.0, 240.0, 0.0, 0.0, 0.0, 1.7695664206655407E9, 0.0, 2026-01-27 18:13:40.665
139.0, -13165.468056853779, -19039.640610175207, -36972.333427945785, -14599.08659447272, -14441.327982107161, -187500.02235174447, -187500.02235174447, -187500.02235174447, 0.05, -0.016, 0.99, 192.0, 0.0, 0.0, 0.0, 0.0, 0.0, 0.0, 0.0, 0.0, 0.0, 1.7695664206692944E9, 0.0, 2026-01-27 18:13:40.669
140.0, -13276.064488418639, -19140.22346022409, -30187.01436364822, -14701.43523233357, -14545.129483357607, -187500.02235174447, -187500.02235174447, -187500.02235174447, 0.05, -0.016, 0.99, 192.0, 0.0, 0.0, 0.0, 0.0, 0.0, 0.0, 0.0, 0.0, 0.0, 1.769566420672291E9, 0.0, 2026-01-27 18:13:40.672
141.0, -13226.689484916866, -19128.332332173864, -30402.44047670847, -14674.6131389872, -14501.901209581043, -187500.02235174447, -187500.02235174447, -187500.02235174447, 0.05, -0.016, 0.99, 192.0, 0.0, 0.0, 0.0, 0.0, 0.0, 0.0, 0.0, 0.0, 0.0, 1.769566420676329E9, 0.0, 2026-01-27 18:13:40.676
142.0, -13094.143640296894, -19020.798089599382, -37622.009232283744, -14554.40545730656, -14363.94624280289, -187500.02235174447, -187500.02235174447, -187500.02235174447, 0.05, -0.016, 0.99, 192.0, 0.0, 0.0, 0.0, 0.0, 0.0, 0.0, 0.0, 0.0, 0.0, 1.769566420680305E9, 0.0, 2026-01-27 18:13:40.680
143.0, -13151.788789247132, -19027.57066816934, -38061.26571431944, -14591.55405659128, -14422.552516764703, -187500.02235174447, -187500.02235174447, -187500.02235174447, 0.05, -0.016, 0.99, 192.0, 0.0, 0.0, 0.0, 0.0, 0.0, 0.0, 0.0, 0.0, 0.0, 1.76956642068536E9, 0.0, 2026-01-27 18:13:40.685
144.0, -13281.987700699294, -19140.670495113194, -31069.327124277013, -14708.140755670162, -14547.58817524769, -187500.02235174447, -187500.02235174447, -187500.02235174447, 0.05, -0.016, 0.99, 192.0, 0.0, 0.0, 0.0, 0.0, 0.0, 0.0, 0.0, 0.0, 0.0, 1.7695664206893322E9, 0.0, 2026-01-27 18:13:40.689
145.0, -13256.95374690935, -19155.93673657617, -29640.469508227052, -14709.7724330154, -14536.993448375875, -187500.02235174447, -187500.02235174447, -187500.02235174447, 0.05, -0.016, 0.99, 192.0, 0.0, 0.0, 0.0, 0.0, 0.0, 0.0, 0.0, 0.0, 0.0, 1.7695664206933475E9, 0.0, 2026-01-27 18:13:40.693
146.0, -13112.539125983612, -19052.694028937105, -36357.973379847215, -14587.486039100415, -14404.224086311351, -187500.02235174447, -187500.02235174447, -187500.02235174447, 0.05, -0.016, 0.99, 192.0, 0.0, 0.0, 0.0, 0.0, 0.0, 0.0, 0.0, 0.0, 0.0, 1.7695664206975074E9, 0.0, 2026-01-27 18:13:40.697
147.0, -13125.88311742343, -19020.239295988, -38870.22004964591, -14582.166323920052, -14413.164784093475, -187500.02235174447, -187500.02235174447, -187500.02235174447, 0.05, -0.016, 0.99, 192.0, 0.0, 0.0, 0.0, 0.0, 0.0, 0.0, 0.0, 0.0, 0.0, 1.7695664207003367E9, 0.0, 2026-01-27 18:13:40.700
148.0, -13281.741831510286, -19143.419759681197, -32158.438224606303, -14716.00856971843, -14555.724210229422, -187500.02235174447, -187500.02235174447, -187500.02235174447, 0.046, -0.014, 0.99, 192.0, 1.0, 112.0, 255.0, 144.0, 30.0, 240.0, 0.0, 0.0, 0.0, 1.7695664207044055E9, 0.0, 2026-01-27 18:13:40.704
149.0, -13285.161648411948, -19176.433286241685, -29179.62124104753, -14739.567308374324, -14571.370431348138, -187500.02235174447, -187500.02235174447, -187500.02235174447, 0.046, -0.014, 0.99, 192.0, 0.0, 0.0, 0.0, 0.0, 0.0, 0.0, 0.0, 0.0, 0.0, 1.7695664207083404E9, 0.0, 2026-01-27 18:13:40.708
150.0, -13131.962791915274, -19065.21100583208, -34976.859089953796, -14608.004940510385, -14428.721598234368, -187500.02235174447, -187500.02235174447, -187500.02235174447, 0.046, -0.014, 0.99, 192.0, 0.0, 0.0, 0.0, 0.0, 0.0, 0.0, 0.0, 0.0, 0.0, 1.7695664207123356E9, 0.0, 2026-01-27 18:13:40.712
151.0, -13092.981349585218, -18993.484257875, -39398.88350950283, -14559.792227720289, -14393.048214083698, -187500.02235174447, -187500.02235174447, -187500.02235174447, 0.046, -0.014, 0.99, 192.0, 0.0, 0.0, 0.0, 0.0, 0.0, 0.0, 0.0, 0.0, 0.0, 1.7695664207173615E9, 0.0, 2026-01-27 18:13:40.717
152.0, -13247.074275860105, -19102.33725337234, -33472.72079857836, -14682.793877457843, -14524.610581947636, -187500.02235174447, -187500.02235174447, -187500.02235174447, 0.046, -0.014, 0.99, 192.0, 0.0, 0.0, 0.0, 0.0, 0.0, 0.0, 0.0, 0.0, 0.0, 1.7695664207213967E9, 0.0, 2026-01-27 18:13:40.721
153.0, -13293.230628160314, -19166.017373325514, -29012.430192521835, -14732.302991426348, -14563.010878921854, -187500.02235174447, -187500.02235174447, -187500.02235174447, 0.046, -0.014, 0.99, 192.0, 0.0, 0.0, 0.0, 0.0, 0.0, 0.0, 0.0, 0.0, 0.0, 1.769566420724384E9, 0.0, 2026-01-27 18:13:40.724
154.0, -13165.110428942495, -19088.434468321142, -33530.29889229523, -14628.36737970917, -14447.00532519881, -187500.02235174447, -187500.02235174447, -187500.02235174447, 0.046, -0.014, 0.99, 192.0, 0.0, 0.0, 0.0, 0.0, 0.0, 0.0, 0.0, 0.0, 0.0, 1.7695664207283888E9, 0.0, 2026-01-27 18:13:40.728
155.0, -13084.510038436656, -18993.081926474802, -39514.799656248055, -14543.16252984554, -14366.896673070989, -187500.02235174447, -187500.02235174447, -187500.02235174447, 0.046, -0.014, 0.99, 192.0, 0.0, 0.0, 0.0, 0.0, 0.0, 0.0, 0.0, 0.0, 0.0, 1.769566420732366E9, 0.0, 2026-01-27 18:13:40.732
156.0, -13227.024761083694, -19081.416020562177, -34851.06347215932, -14652.507263720903, -14490.457116419926, -187500.02235174447, -187500.02235174447, -187500.02235174447, 0.046, -0.014, 0.99, 192.0, 0.0, 0.0, 0.0, 0.0, 0.0, 0.0, 0.0, 0.0, 0.0, 1.7695664207364066E9, 0.0, 2026-01-27 18:13:40.736
157.0, -13317.974009272339, -19183.764658423028, -29078.010210753706, -14748.463302667536, -14586.390803622104, -187500.02235174447, -187500.02235174447, -187500.02235174447, 0.046, -0.014, 0.99, 192.0, 0.0, 0.0, 0.0, 0.0, 0.0, 0.0, 0.0, 0.0, 0.0, 1.7695664207404156E9, 0.0, 2026-01-27 18:13:40.740
158.0, -13199.777984592676, -19115.077747711868, -32129.470363792225, -14653.244871287927, -14471.949872010931, -187500.02235174447, -187500.02235174447, -187500.02235174447, 0.048, -0.014, 0.996, 192.0, 1.0, 128.0, 255.0, 144.0, 31.0, 32.0, 0.0, 0.0, 0.0, 1.7695664207454083E9, 0.0, 2026-01-27 18:13:40.745
159.0, -13071.68013711931, -18989.013908983936, -39257.70989152311, -14529.975000616909, -14348.568242617637, -187500.02235174447, -187500.02235174447, -187500.02235174447, 0.048, -0.014, 0.996, 192.0, 0.0, 0.0, 0.0, 0.0, 0.0, 0.0, 0.0, 0.0, 0.0, 1.7695664207494059E9, 0.0, 2026-01-27 18:13:40.749
160.0, -13199.42035668139, -19057.96904062856, -36255.28946581954, -14629.060283787285, -14467.121895208586, -187500.02235174447, -187500.02235174447, -187500.02235174447, 0.048, -0.014, 0.996, 192.0, 0.0, 0.0, 0.0, 0.0, 0.0, 0.0, 0.0, 0.0, 0.0, 1.7695664207524E9, 0.0, 2026-01-27 18:13:40.752
161.0, -13319.583334873121, -19181.775353166504, -29482.800302839318, -14751.860767824743, -14588.938902490008, -187500.02235174447, -187500.02235174447, -187500.02235174447, 0.048, -0.014, 0.996, 192.0, 0.0, 0.0, 0.0, 0.0, 0.0, 0.0, 0.0, 0.0, 0.0, 1.769566420756405E9, 0.0, 2026-01-27 18:13:40.756
162.0, -13230.399874496447, -19142.83861432536, -30867.35676137886, -14687.979482171475, -14508.025587561797, -187500.02235174447, -187500.02235174447, -187500.02235174447, 0.048, -0.014, 0.996, 192.0, 0.0, 0.0, 0.0, 0.0, 0.0, 0.0, 0.0, 0.0, 0.0, 1.7695664207604463E9, 0.0, 2026-01-27 18:13:40.760
163.0, -13076.910445321852, -19003.810763813348, -38514.02265000613, -14540.681486211, -14358.98415553381, -187500.02235174447, -187500.02235174447, -187500.02235174447, 0.048, -0.014, 0.996, 192.0, 0.0, 0.0, 0.0, 0.0, 0.0, 0.0, 0.0, 0.0, 0.0, 1.76956642076522E9, 0.0, 2026-01-27 18:13:40.765
164.0, -13168.574949333066, -19039.506499708474, -37528.66834743838, -14605.814469553767, -14442.400865841017, -187500.02235174447, -187500.02235174447, -187500.02235174447, 0.048, -0.014, 0.996, 192.0, 0.0, 0.0, 0.0, 0.0, 0.0, 0.0, 0.0, 0.0, 0.0, 1.769566420768398E9, 0.0, 2026-01-27 18:13:40.768
165.0, -13314.084805737115, -19170.13009430529, -30239.85388754057, -14736.147491472662, -14575.617262794645, -187500.02235174447, -187500.02235174447, -187500.02235174447, 0.048, -0.014, 0.996, 192.0, 0.0, 0.0, 0.0, 0.0, 0.0, 0.0, 0.0, 0.0, 0.0, 1.769566420773425E9, 0.0, 2026-01-27 18:13:40.773
166.0, -13255.187959097382, -19155.84732959835, -29895.860540373393, -14703.178668401084, -14531.181994817496, -187500.02235174447, -187500.02235174447, -187500.02235174447, 0.048, -0.014, 0.996, 192.0, 0.0, 0.0, 0.0, 0.0, 0.0, 0.0, 0.0, 0.0, 0.0, 1.769566420777429E9, 0.0, 2026-01-27 18:13:40.777
167.0, -13083.59361691399, -19013.95845579606, -37411.232282070196, -14546.157663602551, -14367.343707960095, -187500.02235174447, -187500.02235174447, -187500.02235174447, 0.048, -0.014, 0.996, 192.0, 0.0, 0.0, 0.0, 0.0, 0.0, 0.0, 0.0, 0.0, 0.0, 1.7695664207804024E9, 0.0, 2026-01-27 18:13:40.780
168.0, -13128.878251180442, -19004.391909169186, -38591.76201722169, -14570.901044714576, -14405.609894467581, -187500.02235174447, -187500.02235174447, -187500.02235174447, 0.044, -0.014, 0.99, 192.0, 1.0, 96.0, 255.0, 144.0, 30.0, 240.0, 0.0, 0.0, 0.0, 1.769566420784447E9, 0.0, 2026-01-27 18:13:40.784
169.0, -13298.30447415167, -19144.69380911515, -31266.290696417178, -14719.54014534237, -14563.59202427769, -187500.02235174447, -187500.02235174447, -187500.02235174447, 0.044, -0.014, 0.99, 192.0, 0.0, 0.0, 0.0, 0.0, 0.0, 0.0, 0.0, 0.0, 0.0, 1.7695664207895975E9, 0.0, 2026-01-27 18:13:40.789
170.0, -13278.970215197829, -19160.74236163406, -29193.83695052111, -14719.584848831279, -14554.87484394012, -187500.02235174447, -187500.02235174447, -187500.02235174447, 0.044, -0.014, 0.99, 192.0, 0.0, 0.0, 0.0, 0.0, 0.0, 0.0, 0.0, 0.0, 0.0, 1.7695664207924595E9, 0.0, 2026-01-27 18:13:40.792
171.0, -13105.587733458011, -19029.42586295913, -36017.82453272635, -14567.414172579549, -14386.968539591855, -187500.02235174447, -187500.02235174447, -187500.02235174447, 0.044, -0.014, 0.99, 192.0, 0.0, 0.0, 0.0, 0.0, 0.0, 0.0, 0.0, 0.0, 0.0, 1.7695664207964423E9, 0.0, 2026-01-27 18:13:40.796
172.0, -13101.586771200511, -18983.76124903694, -39311.44348519367, -14551.007992149353, -14385.94035934691, -187500.02235174447, -187500.02235174447, -187500.02235174447, 0.044, -0.014, 0.99, 192.0, 0.0, 0.0, 0.0, 0.0, 0.0, 0.0, 0.0, 0.0, 0.0, 1.7695664208014293E9, 0.0, 2026-01-27 18:13:40.801
173.0, -13283.57467455562, -19127.192393206646, -32502.073943862197, -14707.984293458974, -14553.399628806072, -187500.02235174447, -187500.02235174447, -187500.02235174447, 0.044, -0.014, 0.99, 192.0, 0.0, 0.0, 0.0, 0.0, 0.0, 0.0, 0.0, 0.0, 0.0, 1.7695664208054843E9, 0.0, 2026-01-27 18:13:40.805
174.0, -13305.412328888457, -19177.193245553168, -28820.294597184016, -14747.323363700316, -14581.115791930652, -187500.02235174447, -187500.02235174447, -187500.02235174447, 0.044, -0.014, 0.99, 192.0, 0.0, 0.0, 0.0, 0.0, 0.0, 0.0, 0.0, 0.0, 0.0, 1.769566420808468E9, 0.0, 2026-01-27 18:13:40.808
175.0, -13143.026905420651, -19064.272232564956, -34520.123543754045, -14608.004940510385, -14427.559307522692, -187500.02235174447, -187500.02235174447, -187500.02235174447, 0.044, -0.014, 0.99, 192.0, 0.0, 0.0, 0.0, 0.0, 0.0, 0.0, 0.0, 0.0, 0.0, 1.7695664208124945E9, 0.0, 2026-01-27 18:13:40.812
176.0, -13083.057175047063, -18976.452228600054, -39691.870175822994, -14535.764102430834, -14365.913196314956, -187500.02235174447, -187500.02235174447, -187500.02235174447, 0.044, -0.014, 0.99, 192.0, 0.0, 0.0, 0.0, 0.0, 0.0, 0.0, 0.0, 0.0, 0.0, 1.76956642081649E9, 0.0, 2026-01-27 18:13:40.816
177.0, -13251.164645095427, -19096.34698585832, -33895.43698971713, -14674.836656431755, -14521.660151679534, -187500.02235174447, -187500.02235174447, -187500.02235174447, 0.044, -0.014, 0.99, 192.0, 0.0, 0.0, 0.0, 0.0, 0.0, 0.0, 0.0, 0.0, 0.0, 1.76956642082164E9, 0.0, 2026-01-27 18:13:40.821
178.0, -13305.166459699449, -19170.577129194397, -28769.913765181755, -14745.646982866167, -14590.056489712775, -187500.02235174447, -187500.02235174447, -187500.02235174447, 0.05, -0.014, 0.992, 192.0, 1.0, 144.0, 255.0, 144.0, 31.0, 0.0, 0.0, 0.0, 0.0, 1.769566420824489E9, 0.0, 2026-01-27 18:13:40.824
179.0, -13164.708097542298, -19080.72311648406, -33059.12411917736, -14632.144824522118, -14464.484389362859, -187500.02235174447, -187500.02235174447, -187500.02235174447, 0.05, -0.014, 0.992, 192.0, 0.0, 0.0, 0.0, 0.0, 0.0, 0.0, 0.0, 0.0, 0.0, 1.7695664208285244E9, 0.0, 2026-01-27 18:13:40.828
180.0, -13070.026108029619, -18972.317155875822, -39660.57773358557, -14533.707741940945, -14361.845178824089, -187500.02235174447, -187500.02235174447, -187500.02235174447, 0.05, -0.014, 0.992, 192.0, 0.0, 0.0, 0.0, 0.0, 0.0, 0.0, 0.0, 0.0, 0.0, 1.7695664208335304E9, 0.0, 2026-01-27 18:13:40.833
181.0, -13224.387255237969, -19074.86695943677, -35297.29369846507, -14662.252624303417, -14504.270494493307, -187500.02235174447, -187500.02235174447, -187500.02235174447, 0.05, -0.014, 0.992, 192.0, 0.0, 0.0, 0.0, 0.0, 0.0, 0.0, 0.0, 0.0, 0.0, 1.7695664208365235E9, 0.0, 2026-01-27 18:13:40.836
182.0, -13330.155710000481, -19190.51488524853, -28982.031820062617, -14771.418544223136, -14611.201239967495, -187500.02235174447, -187500.02235174447, -187500.02235174447, 0.05, -0.014, 0.992, 192.0, 0.0, 0.0, 0.0, 0.0, 0.0, 0.0, 0.0, 0.0, 0.0, 1.7695664208405144E9, 0.0, 2026-01-27 18:13:40.840
183.0, -13208.450461441334, -19119.235172180553, -31658.653218585638, -14675.641319232145, -14499.084889779675, -187500.02235174447, -187500.02235174447, -187500.02235174447, 0.05, -0.014, 0.992, 192.0, 0.0, 0.0, 0.0, 0.0, 0.0, 0.0, 0.0, 0.0, 0.0, 1.7695664208444867E9, 0.0, 2026-01-27 18:13:40.844
184.0, -13069.869645818431, -18984.588263581787, -39165.97833227853, -14541.597907733669, -14365.287347470206, -187500.02235174447, -187500.02235174447, -187500.02235174447, 0.05, -0.014, 0.992, 192.0, 0.0, 0.0, 0.0, 0.0, 0.0, 0.0, 0.0, 0.0, 0.0, 1.7695664208484805E9, 0.0, 2026-01-27 18:13:40.848
185.0, -13187.819801309086, -19041.004066586982, -36663.07469166216, -14627.56271690878, -14470.29584292124, -187500.02235174447, -187500.02235174447, -187500.02235174447, 0.05, -0.014, 0.992, 192.0, 0.0, 0.0, 0.0, 0.0, 0.0, 0.0, 0.0, 0.0, 0.0, 1.7695664208532996E9, 0.0, 2026-01-27 18:13:40.853
186.0, -13324.947753542394, -19170.688887916673, -29559.198565387556, -14755.325288215316, -14597.700786316489, -187500.02235174447, -187500.02235174447, -187500.02235174447, 0.05, -0.014, 0.992, 192.0, 0.0, 0.0, 0.0, 0.0, 0.0, 0.0, 0.0, 0.0, 0.0, 1.769566420856547E9, 0.0, 2026-01-27 18:13:40.856
187.0, -13241.262822301725, -19127.43826239565, -30532.75114688291, -14688.918255438597, -14518.888535367078, -187500.02235174447, -187500.02235174447, -187500.02235174447, 0.05, -0.014, 0.992, 192.0, 0.0, 0.0, 0.0, 0.0, 0.0, 0.0, 0.0, 0.0, 0.0, 1.7695664208605387E9, 0.0, 2026-01-27 18:13:40.860
188.0, -13077.49159067769, -18986.28699616039, -38319.24954882259, -14538.982753632397, -14365.197940492386, -187500.02235174447, -187500.02235174447, -187500.02235174447, 0.05, -0.01, 0.99, 192.0, 1.0, 144.0, 255.0, 176.0, 30.0, 240.0, 0.0, 0.0, 0.0, 1.7695664208635433E9, 0.0, 2026-01-27 18:13:40.863
189.0, -13159.03075445065, -19013.086737762304, -37903.06006706478, -14599.287760172816, -14442.713790263391, -187500.02235174447, -187500.02235174447, -187500.02235174447, 0.05, -0.01, 0.99, 192.0, 0.0, 0.0, 0.0, 0.0, 0.0, 0.0, 0.0, 0.0, 0.0, 1.769566420868503E9, 0.0, 2026-01-27 18:13:40.868
190.0, -13316.007055760272, -19151.019352796004, -30430.20134332196, -14743.143587487173, -14591.308187402272, -187500.02235174447, -187500.02235174447, -187500.02235174447, 0.05, -0.01, 0.99, 192.0, 0.0, 0.0, 0.0, 0.0, 0.0, 0.0, 0.0, 0.0, 0.0, 1.7695664208729331E9, 0.0, 2026-01-27 18:13:40.872
191.0, -13266.944976680872, -19136.93775378916, -29649.410206009175, -14712.141717927661, -14546.694105469478, -187500.02235174447, -187500.02235174447, -187500.02235174447, 0.05, -0.01, 0.99, 192.0, 0.0, 0.0, 0.0, 0.0, 0.0, 0.0, 0.0, 0.0, 0.0, 1.7695664208765447E9, 0.0, 2026-01-27 18:13:40.876
192.0, -13096.870553120441, -19000.033319000402, -37099.02311551847, -14558.205253863962, -14385.672138413447, -187500.02235174447, -187500.02235174447, -187500.02235174447, 0.05, -0.01, 0.99, 192.0, 0.0, 0.0, 0.0, 0.0, 0.0, 0.0, 0.0, 0.0, 0.0, 1.769566420880551E9, 0.0, 2026-01-27 18:13:40.880
193.0, -13123.714998211266, -18975.960490222038, -38874.69039853697, -14565.000184178376, -14410.884906159034, -187500.02235174447, -187500.02235174447, -187500.02235174447, 0.05, -0.01, 0.99, 192.0, 0.0, 0.0, 0.0, 0.0, 0.0, 0.0, 0.0, 0.0, 0.0, 1.7695664208845913E9, 0.0, 2026-01-27 18:13:40.884
194.0, -13297.857439262563, -19118.274047168976, -31547.252124220387, -14715.695645296055, -14567.481227812914, -187500.02235174447, -187500.02235174447, -187500.02235174447, 0.05, -0.01, 0.99, 192.0, 0.0, 0.0, 0.0, 0.0, 0.0, 0.0, 0.0, 0.0, 0.0, 1.769566420888668E9, 0.0, 2026-01-27 18:13:40.888
195.0, -13294.102346194071, -19148.940640561657, -29025.975349661752, -14729.352561158248, -14571.638652281601, -187500.02235174447, -187500.02235174447, -187500.02235174447, 0.05, -0.01, 0.99, 192.0, 0.0, 0.0, 0.0, 0.0, 0.0, 0.0, 0.0, 0.0, 0.0, 1.769566420891596E9, 0.0, 2026-01-27 18:13:40.891
196.0, -13112.337960283514, -19011.56681913934, -35670.210202957416, -14567.235358623906, -14399.261999042274, -187500.02235174447, -187500.02235174447, -187500.02235174447, 0.05, -0.01, 0.99, 192.0, 0.0, 0.0, 0.0, 0.0, 0.0, 0.0, 0.0, 0.0, 0.0, 1.7695664208965564E9, 0.0, 2026-01-27 18:13:40.896
197.0, -13101.899695622886, -18959.95664119204, -39543.678110084315, -14542.089646111686, -14384.107516301576, -187500.02235174447, -187500.02235174447, -187500.02235174447, 0.05, -0.01, 0.99, 192.0, 0.0, 0.0, 0.0, 0.0, 0.0, 0.0, 0.0, 0.0, 0.0, 1.7695664209006422E9, 0.0, 2026-01-27 18:13:40.900
198.0, -13277.673814019421, -19091.87663696726, -32876.286849532946, -14691.265188606405, -14545.710628713445, -187500.02235174447, -187500.02235174447, -187500.02235174447, 0.048, -0.008, 0.99, 192.0, 1.0, 128.0, 255.0, 192.0, 30.0, 240.0, 0.0, 0.0, 0.0, 1.7695664209054456E9, 0.0, 2026-01-27 18:13:40.905
199.0, -13305.188811443903, -19143.64327712575, -28722.25984600304, -14732.079473981796, -14575.438448839004, -187500.02235174447, -187500.02235174447, -187500.02235174447, 0.048, -0.008, 0.99, 192.0, 0.0, 0.0, 0.0, 0.0, 0.0, 0.0, 0.0, 0.0, 0.0, 1.769566420908716E9, 0.0, 2026-01-27 18:13:40.908
200.0, -13148.100751412005, -19037.114863051756, -34134.42184143327, -14601.478231129437, -14428.006342411798, -187500.02235174447, -187500.02235174447, -187500.02235174447, 0.048, -0.008, 0.99, 192.0, 0.0, 0.0, 0.0, 0.0, 0.0, 0.0, 0.0, 0.0, 0.0, 1.7695664209125779E9, 0.0, 2026-01-27 18:13:40.912
201.0, -13078.20684650026, -18942.566984005807, -39801.12550272054, -14525.705817425945, -14366.136713759508, -187500.02235174447, -187500.02235174447, -187500.02235174447, 0.048, -0.008, 0.99, 192.0, 0.0, 0.0, 0.0, 0.0, 0.0, 0.0, 0.0, 0.0, 0.0, 1.7695664209166107E9, 0.0, 2026-01-27 18:13:40.916
202.0, -13244.414418269924, -19056.270308049956, -34303.490436493215, -14659.033973101852, -14515.133442298586, -187500.02235174447, -187500.02235174447, -187500.02235174447, 0.048, -0.008, 0.99, 192.0, 0.0, 0.0, 0.0, 0.0, 0.0, 0.0, 0.0, 0.0, 0.0, 1.7695664209196265E9, 0.0, 2026-01-27 18:13:40.919
203.0, -13320.320942440147, -19148.44890218364, -28744.87981139181, -14740.215508963527, -14585.452030354982, -187500.02235174447, -187500.02235174447, -187500.02235174447, 0.048, -0.008, 0.99, 192.0, 0.0, 0.0, 0.0, 0.0, 0.0, 0.0, 0.0, 0.0, 0.0, 1.769566420924616E9, 0.0, 2026-01-27 18:13:40.924
204.0, -13174.520513358179, -19057.63376446173, -32667.163928409092, -14619.784309838333, -14450.223976400373, -187500.02235174447, -187500.02235174447, -187500.02235174447, 0.048, -0.008, 0.99, 192.0, 0.0, 0.0, 0.0, 0.0, 0.0, 0.0, 0.0, 0.0, 0.0, 1.7695664209286077E9, 0.0, 2026-01-27 18:13:40.928
205.0, -13061.599500369966, -18936.04027462486, -39650.340634625034, -14509.277285251295, -14347.763579817247, -187500.02235174447, -187500.02235174447, -187500.02235174447, 0.048, -0.008, 0.99, 192.0, 0.0, 0.0, 0.0, 0.0, 0.0, 0.0, 0.0, 0.0, 0.0, 1.7695664209326668E9, 0.0, 2026-01-27 18:13:40.932
206.0, -13208.830441097074, -19027.257743746966, -35739.277093324316, -14630.267277987872, -14483.528075638782, -187500.02235174447, -187500.02235174447, -187500.02235174447, 0.048, -0.008, 0.99, 192.0, 0.0, 0.0, 0.0, 0.0, 0.0, 0.0, 0.0, 0.0, 0.0, 1.7695664209366171E9, 0.0, 2026-01-27 18:13:40.936
207.0, -13321.416177918456, -19146.660762627216, -29066.834338526052, -14743.992953776475, -14592.246960669394, -187500.02235174447, -187500.02235174447, -187500.02235174447, 0.048, -0.008, 0.99, 192.0, 0.0, 0.0, 0.0, 0.0, 0.0, 0.0, 0.0, 0.0, 0.0, 1.7695664209396794E9, 0.0, 2026-01-27 18:13:40.939
208.0, -13203.689539872354, -19079.49377053902, -31318.549074953688, -14651.523786964868, -14485.316215195206, -187500.02235174447, -187500.02235174447, -187500.02235174447, 0.052000000000000005, -0.01, 0.992, 192.0, 1.0, 160.0, 255.0, 176.0, 31.0, 0.0, 0.0, 0.0, 0.0, 1.769566420943656E9, 0.0, 2026-01-27 18:13:40.943
209.0, -13065.019317271628, -18948.713713731016, -39041.38970868465, -14519.402625489549, -14343.740265815291, -187500.02235174447, -187500.02235174447, -187500.02235174447, 0.052000000000000005, -0.01, 0.992, 192.0, 0.0, 0.0, 0.0, 0.0, 0.0, 0.0, 0.0, 0.0, 0.0, 1.7695664209476404E9, 0.0, 2026-01-27 18:13:40.947
210.0, -13180.600187850021, -19005.017758013935, -37072.11161519428, -14604.987455008919, -14451.028639200764, -187500.02235174447, -187500.02235174447, -187500.02235174447, 0.052000000000000005, -0.01, 0.992, 192.0, 0.0, 0.0, 0.0, 0.0, 0.0, 0.0, 0.0, 0.0, 0.0, 1.7695664209526095E9, 0.0, 2026-01-27 18:13:40.952
211.0, -13332.68145712393, -19150.326448717886, -29726.523724379986, -14747.658639867144, -14598.997187494897, -187500.02235174447, -187500.02235174447, -187500.02235174447, 0.052000000000000005, -0.01, 0.992, 192.0, 0.0, 0.0, 0.0, 0.0, 0.0, 0.0, 0.0, 0.0, 0.0, 1.769566420956633E9, 0.0, 2026-01-27 18:13:40.956
212.0, -13245.196729325859, -19110.227419165065, -30200.64892776596, -14685.856066448221, -14522.420110991015, -187500.02235174447, -187500.02235174447, -187500.02235174447, 0.052000000000000005, -0.01, 0.992, 192.0, 0.0, 0.0, 0.0, 0.0, 0.0, 0.0, 0.0, 0.0, 0.0, 1.7695664209606504E9, 0.0, 2026-01-27 18:13:40.960
213.0, -13078.385660455902, -18970.126684919203, -38029.70505114854, -14535.49588149737, -14365.600271892581, -187500.02235174447, -187500.02235174447, -187500.02235174447, 0.052000000000000005, -0.01, 0.992, 192.0, 0.0, 0.0, 0.0, 0.0, 0.0, 0.0, 0.0, 0.0, 0.0, 1.769566420964654E9, 0.0, 2026-01-27 18:13:40.964
214.0, -13146.781998489143, -18986.84578977177, -38236.10105944885, -14590.03413796832, -14437.215261127385, -187500.02235174447, -187500.02235174447, -187500.02235174447, 0.052000000000000005, -0.01, 0.992, 192.0, 0.0, 0.0, 0.0, 0.0, 0.0, 0.0, 0.0, 0.0, 0.0, 1.7695664209676375E9, 0.0, 2026-01-27 18:13:40.967
215.0, -13318.041064505705, -19142.995076536547, -30683.178387067128, -14754.408866692647, -14604.22749569744, -187500.02235174447, -187500.02235174447, -187500.02235174447, 0.052000000000000005, -0.01, 0.992, 192.0, 0.0, 0.0, 0.0, 0.0, 0.0, 0.0, 0.0, 0.0, 0.0, 1.769566420972932E9, 0.0, 2026-01-27 18:13:40.972
216.0, -13279.529008809212, -19143.844442825848, -29374.930784098004, -14736.885099039686, -14571.325727859226, -187500.02235174447, -187500.02235174447, -187500.02235174447, 0.052000000000000005, -0.01, 0.992, 192.0, 0.0, 0.0, 0.0, 0.0, 0.0, 0.0, 0.0, 0.0, 0.0, 1.7695664209756827E9, 0.0, 2026-01-27 18:13:40.975
217.0, -13095.820021131041, -18993.484257875, -36741.216390277914, -14562.854416710667, -14387.28146401423, -187500.02235174447, -187500.02235174447, -187500.02235174447, 0.052000000000000005, -0.01, 0.992, 192.0, 0.0, 0.0, 0.0, 0.0, 0.0, 0.0, 0.0, 0.0, 0.0, 1.7695664209807997E9, 0.0, 2026-01-27 18:13:40.980
218.0, -13115.780128929631, -18959.688420258575, -39154.31072167286, -14553.869015439632, -14394.255208284285, -187500.02235174447, -187500.02235174447, -187500.02235174447, 0.05, -0.014, 0.992, 192.0, 1.0, 144.0, 255.0, 144.0, 31.0, 0.0, 0.0, 0.0, 0.0, 1.7695664209847434E9, 0.0, 2026-01-27 18:13:40.984
219.0, -13295.376395628024, -19103.857171995303, -31923.119058980832, -14705.257380635427, -14551.92441367202, -187500.02235174447, -187500.02235174447, -187500.02235174447, 0.05, -0.014, 0.992, 192.0, 0.0, 0.0, 0.0, 0.0, 0.0, 0.0, 0.0, 0.0, 0.0, 1.7695664209887743E9, 0.0, 2026-01-27 18:13:40.988
220.0, -13299.578523585622, -19139.910535801715, -28879.839644412954, -14723.33994189977, -14556.97590791892, -187500.02235174447, -187500.02235174447, -187500.02235174447, 0.05, -0.014, 0.992, 192.0, 0.0, 0.0, 0.0, 0.0, 0.0, 0.0, 0.0, 0.0, 0.0, 1.7695664209928167E9, 0.0, 2026-01-27 18:13:40.992
221.0, -13111.98033237223, -18996.56879860983, -35290.76698908413, -14550.806826449256, -14371.277614984228, -187500.02235174447, -187500.02235174447, -187500.02235174447, 0.05, -0.014, 0.992, 192.0, 0.0, 0.0, 0.0, 0.0, 0.0, 0.0, 0.0, 0.0, 0.0, 1.7695664209957404E9, 0.0, 2026-01-27 18:13:40.995
222.0, -13094.367157741448, -18938.811890937315, -39711.09267605456, -14513.926448097998, -14346.109550727553, -187500.02235174447, -187500.02235174447, -187500.02235174447, 0.05, -0.014, 0.992, 192.0, 0.0, 0.0, 0.0, 0.0, 0.0, 0.0, 0.0, 0.0, 0.0, 1.76956642099973E9, 0.0, 2026-01-27 18:13:40.999
223.0, -13282.05475593266, -19078.130314127244, -33247.77284238015, -14668.75698193991, -14511.91479109702, -187500.02235174447, -187500.02235174447, -187500.02235174447, 0.05, -0.014, 0.992, 192.0, 0.0, 0.0, 0.0, 0.0, 0.0, 0.0, 0.0, 0.0, 0.0, 1.7695664210050583E9, 0.0, 2026-01-27 18:13:41.005
224.0, -13323.405483174978, -19142.1680619917, -28626.728490201058, -14716.321494140804, -14548.079913625708, -187500.02235174447, -187500.02235174447, -187500.02235174447, 0.05, -0.014, 0.992, 192.0, 0.0, 0.0, 0.0, 0.0, 0.0, 0.0, 0.0, 0.0, 0.0, 1.7695664210077803E9, 0.0, 2026-01-27 18:13:41.007
225.0, -13148.771303745665, -19017.400624442176, -33706.25182464741, -14559.12167538663, -14375.65855689747, -187500.02235174447, -187500.02235174447, -187500.02235174447, 0.05, -0.014, 0.992, 192.0, 0.0, 0.0, 0.0, 0.0, 0.0, 0.0, 0.0, 0.0, 0.0, 1.7695664210128307E9, 0.0, 2026-01-27 18:13:41.012
226.0, -13074.25058773167, -18916.035463337357, -39822.627880886546, -14469.804104543222, -14293.001805901744, -187500.02235174447, -187500.02235174447, -187500.02235174447, 0.05, -0.014, 0.992, 192.0, 0.0, 0.0, 0.0, 0.0, 0.0, 0.0, 0.0, 0.0, 0.0, 1.7695664210167289E9, 0.0, 2026-01-27 18:13:41.016
227.0, -13242.04513335766, -19029.20234551458, -34686.688743435, -14604.048681741797, -14436.8576332161, -187500.02235174447, -187500.02235174447, -187500.02235174447, 0.05, -0.014, 0.992, 192.0, 0.0, 0.0, 0.0, 0.0, 0.0, 0.0, 0.0, 0.0, 0.0, 1.769566421022673E9, 0.0, 2026-01-27 18:13:41.022
228.0, -13337.107102526083, -19138.100044500836, -28722.48336344759, -14702.172839900595, -14526.175204059507, -187500.02235174447, -187500.02235174447, -187500.02235174447, 0.05, -0.014, 0.992, 192.0, 0.0, 0.0, 0.0, 0.0, 0.0, 0.0, 0.0, 0.0, 0.0, 1.7695664210239406E9, 0.0, 2026-01-27 18:13:41.023
229.0, -13196.626388624478, -19051.15175856969, -32223.079469571054, -14584.781478021323, -14394.925760617944, -187500.02235174447, -187500.02235174447, -187500.02235174447, 0.046, -0.016, 0.992, 192.0, 1.0, 112.0, 255.0, 128.0, 31.0, 0.0, 0.0, 0.0, 0.0, 1.76956642102777E9, 0.0, 2026-01-27 18:13:41.027
230.0, -13065.131075993906, -18916.661312182106, -39523.740354030175, -14454.470807846881, -14258.714229907302, -187500.02235174447, -187500.02235174447, -187500.02235174447, 0.046, -0.016, 0.992, 192.0, 0.0, 0.0, 0.0, 0.0, 0.0, 0.0, 0.0, 0.0, 0.0, 1.769566421031904E9, 0.0, 2026-01-27 18:13:41.031
231.0, -13207.377577707479, -18998.20047595507, -36116.48513275208, -14561.870939954631, -14385.761545391268, -187500.02235174447, -187500.02235174447, -187500.02235174447, 0.046, -0.016, 0.992, 192.0, 0.0, 0.0, 0.0, 0.0, 0.0, 0.0, 0.0, 0.0, 0.0, 1.7695664210357664E9, 0.0, 2026-01-27 18:13:41.035
232.0, -13331.630925134532, -19123.079672226868, -29177.877804980017, -14679.016432644896, -14499.040186290764, -187500.02235174447, -187500.02235174447, -187500.02235174447, 0.046, -0.016, 0.992, 192.0, 0.0, 0.0, 0.0, 0.0, 0.0, 0.0, 0.0, 0.0, 0.0, 1.7695664210407526E9, 0.0, 2026-01-27 18:13:41.040
233.0, -13227.874127372996, -19068.027325633448, -30941.341035525926, -14594.303321159283, -14396.356272263083, -187500.02235174447, -187500.02235174447, -187500.02235174447, 0.046, -0.016, 0.992, 192.0, 0.0, 0.0, 0.0, 0.0, 0.0, 0.0, 0.0, 0.0, 0.0, 1.76956642104476E9, 0.0, 2026-01-27 18:13:41.044
234.0, -13067.321546950525, -18921.109309328713, -38805.17647328097, -14438.846938472623, -14235.379008695962, -187500.02235174447, -187500.02235174447, -187500.02235174447, 0.046, -0.016, 0.992, 192.0, 0.0, 0.0, 0.0, 0.0, 0.0, 0.0, 0.0, 0.0, 0.0, 1.7695664210477288E9, 0.0, 2026-01-27 18:13:41.047
235.0, -13186.903379786418, -18983.917711248127, -37400.59285170947, -14533.528927985302, -14343.203823948363, -187500.02235174447, -187500.02235174447, -187500.02235174447, 0.046, -0.016, 0.992, 192.0, 0.0, 0.0, 0.0, 0.0, 0.0, 0.0, 0.0, 0.0, 0.0, 1.7695664210517285E9, 0.0, 2026-01-27 18:13:41.051
236.0, -13339.007000804782, -19127.862945540302, -29895.72642990666, -14678.636452989156, -14488.221941974396, -187500.02235174447, -187500.02235174447, -187500.02235174447, 0.046, -0.016, 0.992, 192.0, 0.0, 0.0, 0.0, 0.0, 0.0, 0.0, 0.0, 0.0, 0.0, 1.769566421055792E9, 0.0, 2026-01-27 18:13:41.055
237.0, -13265.961499924839, -19104.572427817875, -29885.48933094613, -14632.725969877956, -14428.453377300904, -187500.02235174447, -187500.02235174447, -187500.02235174447, 0.046, -0.016, 0.992, 192.0, 0.0, 0.0, 0.0, 0.0, 0.0, 0.0, 0.0, 0.0, 0.0, 1.7695664210597959E9, 0.0, 2026-01-27 18:13:41.059
238.0, -13087.080489049016, -18956.313306845823, -37684.32589582514, -14467.52422660878, -14255.227357772275, -187500.02235174447, -187500.02235174447, -187500.02235174447, 0.046, -0.016, 0.992, 192.0, 0.0, 0.0, 0.0, 0.0, 0.0, 0.0, 0.0, 0.0, 0.0, 1.7695664210637896E9, 0.0, 2026-01-27 18:13:41.063
239.0, -13156.996745705217, -18970.149036663657, -38493.99548697418, -14513.188840530973, -14317.365207358029, -187500.02235174447, -187500.02235174447, -187500.02235174447, 0.046, -0.01, 0.992, 192.0, 1.0, 112.0, 255.0, 176.0, 31.0, 0.0, 0.0, 0.0, 0.0, 1.7695664210687866E9, 0.0, 2026-01-27 18:13:41.068
240.0, -13332.279125723735, -19121.000959992525, -30935.082547078437, -14668.533464495358, -14477.58251161367, -187500.02235174447, -187500.02235174447, -187500.02235174447, 0.046, -0.01, 0.992, 192.0, 0.0, 0.0, 0.0, 0.0, 0.0, 0.0, 0.0, 0.0, 0.0, 1.7695664210728087E9, 0.0, 2026-01-27 18:13:41.072
241.0, -13288.693224035887, -19121.91738151519, -29123.116031064517, -14648.32748750776, -14443.116121663586, -187500.02235174447, -187500.02235174447, -187500.02235174447, 0.046, -0.01, 0.992, 192.0, 0.0, 0.0, 0.0, 0.0, 0.0, 0.0, 0.0, 0.0, 0.0, 1.769566421075786E9, 0.0, 2026-01-27 18:13:41.075
242.0, -13084.73355588121, -18960.403676081143, -36328.60318763294, -14465.087886463152, -14248.432427457861, -187500.02235174447, -187500.02235174447, -187500.02235174447, 0.046, -0.01, 0.992, 192.0, 0.0, 0.0, 0.0, 0.0, 0.0, 0.0, 0.0, 0.0, 0.0, 1.7695664210797915E9, 0.0, 2026-01-27 18:13:41.079
243.0, -13102.97257935674, -18933.201603079033, -39346.08868909939, -14471.01109874381, -14267.073782333588, -187500.02235174447, -187500.02235174447, -187500.02235174447, 0.046, -0.01, 0.992, 192.0, 0.0, 0.0, 0.0, 0.0, 0.0, 0.0, 0.0, 0.0, 0.0, 1.7695664210837903E9, 0.0, 2026-01-27 18:13:41.083
244.0, -13296.024596217227, -19089.999090433015, -32249.09690011703, -14643.27599326086, -14449.15109266652, -187500.02235174447, -187500.02235174447, -187500.02235174447, 0.046, -0.01, 0.992, 192.0, 0.0, 0.0, 0.0, 0.0, 0.0, 0.0, 0.0, 0.0, 0.0, 1.7695664210878253E9, 0.0, 2026-01-27 18:13:41.087
245.0, -13313.727177825831, -19141.16223349121, -28745.10332883636, -14681.09514487924, -14475.079116234676, -187500.02235174447, -187500.02235174447, -187500.02235174447, 0.046, -0.01, 0.992, 192.0, 0.0, 0.0, 0.0, 0.0, 0.0, 0.0, 0.0, 0.0, 0.0, 1.769566421091806E9, 0.0, 2026-01-27 18:13:41.091
246.0, -13131.806329704086, -19010.695101105583, -34833.047966128346, -14525.415244748026, -14303.64123626247, -187500.02235174447, -187500.02235174447, -187500.02235174447, 0.046, -0.01, 0.992, 192.0, 0.0, 0.0, 0.0, 0.0, 0.0, 0.0, 0.0, 0.0, 0.0, 1.7695664210968168E9, 0.0, 2026-01-27 18:13:41.096
247.0, -13089.78505012811, -18935.369722291198, -39789.5920025816, -14473.380383656071, -14261.798770642135, -187500.02235174447, -187500.02235174447, -187500.02235174447, 0.046, -0.01, 0.992, 192.0, 0.0, 0.0, 0.0, 0.0, 0.0, 0.0, 0.0, 0.0, 0.0, 1.7695664211008446E9, 0.0, 2026-01-27 18:13:41.100
248.0, -13278.187904141892, -19078.554997271898, -33656.22862055643, -14634.737626878934, -14435.695342504425, -187500.02235174447, -187500.02235174447, -187500.02235174447, 0.046, -0.01, 0.992, 192.0, 0.0, 0.0, 0.0, 0.0, 0.0, 0.0, 0.0, 0.0, 0.0, 1.769566421105304E9, 0.0, 2026-01-27 18:13:41.105
249.0, -13334.760169358275, -19157.948393577146, -28623.688652955134, -14701.703453267033, -14490.01008153082, -187500.02235174447, -187500.02235174447, -187500.02235174447, 0.05, -0.012, 1.0, 192.0, 1.0, 144.0, 255.0, 160.0, 31.0, 64.0, 0.0, 0.0, 0.0, 1.769566421107811E9, 0.0, 2026-01-27 18:13:41.107
250.0, -13175.325176158569, -19049.16245331317, -33300.65706976141, -14564.128466144619, -14339.046399479676, -187500.02235174447, -187500.02235174447, -187500.02235174447, 0.05, -0.012, 1.0, 192.0, 0.0, 0.0, 0.0, 0.0, 0.0, 0.0, 0.0, 0.0, 0.0, 1.7695664211118171E9, 0.0, 2026-01-27 18:13:41.111
251.0, -13083.168933769339, -18941.60585899423, -39780.69600828839, -14469.714697565401, -14253.126293793475, -187500.02235174447, -187500.02235174447, -187500.02235174447, 0.05, -0.012, 1.0, 192.0, 0.0, 0.0, 0.0, 0.0, 0.0, 0.0, 0.0, 0.0, 0.0, 1.7695664211159763E9, 0.0, 2026-01-27 18:13:41.115
252.0, -13247.074275860105, -19050.078874835835, -35097.20088210117, -14603.735757319422, -14407.129813090542, -187500.02235174447, -187500.02235174447, -187500.02235174447, 0.05, -0.012, 1.0, 192.0, 0.0, 0.0, 0.0, 0.0, 0.0, 0.0, 0.0, 0.0, 0.0, 1.769566421119871E9, 0.0, 2026-01-27 18:13:41.119
253.0, -13350.428742221446, -19161.278803500987, -28835.18085899125, -14708.073700436797, -14502.527058425792, -187500.02235174447, -187500.02235174447, -187500.02235174447, 0.05, -0.012, 1.0, 192.0, 0.0, 0.0, 0.0, 0.0, 0.0, 0.0, 0.0, 0.0, 0.0, 1.7695664211239717E9, 0.0, 2026-01-27 18:13:41.123
254.0, -13213.859583599518, -19075.53751177043, -31869.16194786572, -14596.31497816026, -14373.55749291867, -187500.02235174447, -187500.02235174447, -187500.02235174447, 0.05, -0.012, 1.0, 192.0, 0.0, 0.0, 0.0, 0.0, 0.0, 0.0, 0.0, 0.0, 0.0, 1.769566421127838E9, 0.0, 2026-01-27 18:13:41.127
255.0, -13071.791895841587, -18935.146204846646, -39365.26648584205, -14460.14815093853, -14244.63263090046, -187500.02235174447, -187500.02235174447, -187500.02235174447, 0.05, -0.012, 1.0, 192.0, 0.0, 0.0, 0.0, 0.0, 0.0, 0.0, 0.0, 0.0, 0.0, 1.7695664211309257E9, 0.0, 2026-01-27 18:13:41.130
0.0, -13204.024816039184, -19004.70483359156, -36504.153788584925, -14561.289794598795, -14367.164894004452, -187500.02235174447, -187500.02235174447, -187500.02235174447, 0.05, -0.012, 1.0, 192.0, 0.0, 0.0, 0.0, 0.0, 0.0, 0.0, 0.0, 0.0, 0.0, 1.769566421135841E9, 0.0, 2026-01-27 18:13:41.135
1.0, -13342.002134561793, -19138.390617178753, -29359.95511531295, -14692.069851406795, -14502.43765144797, -187500.02235174447, -187500.02235174447, -187500.02235174447, 0.05, -0.012, 1.0, 192.0, 0.0, 0.0, 0.0, 0.0, 0.0, 0.0, 0.0, 0.0, 0.0, 1.769566421139882E9, 0.0, 2026-01-27 18:13:41.139
2.0, -13236.770121666208, -19083.315918840875, -30649.650770384167, -14613.503469646392, -14406.593371223615, -187500.02235174447, -187500.02235174447, -187500.02235174447, 0.05, -0.012, 1.0, 192.0, 0.0, 0.0, 0.0, 0.0, 0.0, 0.0, 0.0, 0.0, 0.0, 1.7695664211438658E9, 0.0, 2026-01-27 18:13:41.143
3.0, -13073.468276675734, -18939.102463615236, -38494.263707907645, -14462.271566661784, -14243.91737507789, -187500.02235174447, -187500.02235174447, -187500.02235174447, 0.048, -0.016, 0.994, 192.0, 1.0, 128.0, 255.0, 128.0, 31.0, 16.0, 0.0, 0.0, 0.0, 1.7695664211478813E9, 0.0, 2026-01-27 18:13:41.147
4.0, -13165.669222553877, -18971.80306575335, -37699.882709966034, -14526.219907548417, -14330.239812164285, -187500.02235174447, -187500.02235174447, -187500.02235174447, 0.048, -0.016, 0.994, 192.0, 0.0, 0.0, 0.0, 0.0, 0.0, 0.0, 0.0, 0.0, 0.0, 1.7695664211530285E9, 0.0, 2026-01-27 18:13:41.153
5.0, -13326.802948332186, -19115.435375623154, -30154.73844465476, -14674.009641886907, -14484.19862797244, -187500.02235174447, -187500.02235174447, -187500.02235174447, 0.048, -0.016, 0.994, 192.0, 0.0, 0.0, 0.0, 0.0, 0.0, 0.0, 0.0, 0.0, 0.0, 1.7695664211558719E9, 0.0, 2026-01-27 18:13:41.155
6.0, -13263.011069656739, -19096.302282369412, -29672.20898535359, -14636.32460073526, -14436.052970415709, -187500.02235174447, -187500.02235174447, -187500.02235174447, 0.048, -0.016, 0.994, 192.0, 0.0, 0.0, 0.0, 0.0, 0.0, 0.0, 0.0, 0.0, 0.0, 1.769566421158901E9, 0.0, 2026-01-27 18:13:41.158
7.0, -13085.135887281405, -18947.104388130236, -37319.72424027017, -14469.535883609758, -14259.653003174426, -187500.02235174447, -187500.02235174447, -187500.02235174447, 0.048, -0.016, 0.994, 192.0, 0.0, 0.0, 0.0, 0.0, 0.0, 0.0, 0.0, 0.0, 0.0, 1.769566421163906E9, 0.0, 2026-01-27 18:13:41.163
8.0, -13139.495329796711, -18948.98193466448, -38734.09792591309, -14502.370596214605, -14307.93277119789, -187500.02235174447, -187500.02235174447, -187500.02235174447, 0.048, -0.016, 0.994, 192.0, 0.0, 0.0, 0.0, 0.0, 0.0, 0.0, 0.0, 0.0, 0.0, 1.7695664211678908E9, 0.0, 2026-01-27 18:13:41.167
9.0, -13322.980800030327, -19107.701672041618, -31262.80382428215, -14666.834731916755, -14482.902226794033, -187500.02235174447, -187500.02235174447, -187500.02235174447, 0.048, -0.016, 0.994, 192.0, 0.0, 0.0, 0.0, 0.0, 0.0, 0.0, 0.0, 0.0, 0.0, 1.7695664211719124E9, 0.0, 2026-01-27 18:13:41.171
10.0, -13301.724291053331, -19122.029140237468, -29003.042459850607, -14664.174874326573, -14463.411505629005, -187500.02235174447, -187500.02235174447, -187500.02235174447, 0.048, -0.016, 0.994, 192.0, 0.0, 0.0, 0.0, 0.0, 0.0, 0.0, 0.0, 0.0, 0.0, 1.7695664211759176E9, 0.0, 2026-01-27 18:13:41.175
11.0, -13118.350579541991, -18983.09069670328, -35866.99496114194, -14501.834154347678, -14289.73845121127, -187500.02235174447, -187500.02235174447, -187500.02235174447, 0.048, -0.016, 0.994, 192.0, 0.0, 0.0, 0.0, 0.0, 0.0, 0.0, 0.0, 0.0, 0.0, 1.7695664211799588E9, 0.0, 2026-01-27 18:13:41.179
12.0, -13103.620779945944, -18928.46303325451, -39426.1079342494, -14475.05676449022, -14279.501352250738, -187500.02235174447, -187500.02235174447, -187500.02235174447, 0.048, -0.016, 0.994, 192.0, 0.0, 0.0, 0.0, 0.0, 0.0, 0.0, 0.0, 0.0, 0.0, 1.7695664211839273E9, 0.0, 2026-01-27 18:13:41.183
13.0, -13295.868134006041, -19082.600663018307, -32560.367293401636, -14642.337219993738, -14455.543691580737, -187500.02235174447, -187500.02235174447, -187500.02235174447, 0.042, -0.018000000000000002, 0.994, 192.0, 1.0, 80.0, 255.0, 112.0, 31.0, 16.0, 0.0, 0.0, 0.0, 1.7695664211883879E9, 0.0, 2026-01-27 18:13:41.188
14.0, -13321.974971529839, -19138.614134623305, -28648.499089300527, -14683.062098391307, -14483.662186105514, -187500.02235174447, -187500.02235174447, -187500.02235174447, 0.042, -0.018000000000000002, 0.994, 192.0, 0.0, 0.0, 0.0, 0.0, 0.0, 0.0, 0.0, 0.0, 0.0, 1.7695664211919148E9, 0.0, 2026-01-27 18:13:41.191
15.0, -13142.244594364714, -19009.130478993713, -34377.25119319573, -14527.11397732663, -14312.671341022415, -187500.02235174447, -187500.02235174447, -187500.02235174447, 0.042, -0.018000000000000002, 0.994, 192.0, 0.0, 0.0, 0.0, 0.0, 0.0, 0.0, 0.0, 0.0, 0.0, 1.7695664211959229E9, 0.0, 2026-01-27 18:13:41.195
16.0, -13086.320529737537, -18925.624361708684, -39779.93604897691, -14463.210339928906, -14256.791979884147, -187500.02235174447, -187500.02235174447, -187500.02235174447, 0.042, -0.018000000000000002, 0.994, 192.0, 0.0, 0.0, 0.0, 0.0, 0.0, 0.0, 0.0, 0.0, 0.0, 1.7695664211999414E9, 0.0, 2026-01-27 18:13:41.199
17.0, -13271.907063949951, -19061.947651141603, -33990.78953156347, -14620.052530771796, -14426.62053425557, -187500.02235174447, -187500.02235174447, -187500.02235174447, 0.042, -0.018000000000000002, 0.994, 192.0, 0.0, 0.0, 0.0, 0.0, 0.0, 0.0, 0.0, 0.0, 0.0, 1.7695664212054815E9, 0.0, 2026-01-27 18:13:41.205
18.0, -13339.342276971613, -19152.2710504855, -28625.387385533737, -14699.535334054868, -14498.101413023642, -187500.02235174447, -187500.02235174447, -187500.02235174447, 0.042, -0.018000000000000002, 0.994, 192.0, 0.0, 0.0, 0.0, 0.0, 0.0, 0.0, 0.0, 0.0, 0.0, 1.7695664212079463E9, 0.0, 2026-01-27 18:13:41.207
19.0, -13190.144382732438, -19054.169244071156, -32866.94382035063, -14571.88452147061, -14355.899614798978, -187500.02235174447, -187500.02235174447, -187500.02235174447, 0.042, -0.018000000000000002, 0.994, 192.0, 0.0, 0.0, 0.0, 0.0, 0.0, 0.0, 0.0, 0.0, 0.0, 1.7695664212119515E9, 0.0, 2026-01-27 18:13:41.211
20.0, -13075.859913332453, -18928.574791976785, -39674.838146548056, -14457.86827300409, -14247.761875124203, -187500.02235174447, -187500.02235174447, -187500.02235174447, 0.042, -0.018000000000000002, 0.994, 192.0, 0.0, 0.0, 0.0, 0.0, 0.0, 0.0, 0.0, 0.0, 0.0, 1.7695664212149527E9, 0.0, 2026-01-27 18:13:41.214
21.0, -13231.875089630495, -19029.269400747944, -35492.64794500446, -14587.039004211309, -14393.003510594788, -187500.02235174447, -187500.02235174447, -187500.02235174447, 0.042, -0.018000000000000002, 0.994, 192.0, 0.0, 0.0, 0.0, 0.0, 0.0, 0.0, 0.0, 0.0, 0.0, 1.7695664212199404E9, 0.0, 2026-01-27 18:13:41.219
22.0, -13347.701829397898, -19149.678248128683, -28946.000808000663, -14702.821040489798, -14502.527058425792, -187500.02235174447, -187500.02235174447, -187500.02235174447, 0.042, -0.018000000000000002, 0.994, 192.0, 0.0, 0.0, 0.0, 0.0, 0.0, 0.0, 0.0, 0.0, 0.0, 1.7695664212239876E9, 0.0, 2026-01-27 18:13:41.223
23.0, -13210.931505075874, -19067.356773299787, -31517.613711072652, -14593.453954869981, -14376.910254586966, -187500.02235174447, -187500.02235174447, -187500.02235174447, 0.044, -0.018000000000000002, 0.994, 192.0, 1.0, 96.0, 255.0, 112.0, 31.0, 16.0, 0.0, 0.0, 0.0, 1.7695664212290492E9, 0.0, 2026-01-27 18:13:41.229
24.0, -13062.717087592733, -18922.74098667395, -39167.90058230169, -14451.38626711205, -14235.021380784678, -187500.02235174447, -187500.02235174447, -187500.02235174447, 0.044, -0.018000000000000002, 0.994, 192.0, 0.0, 0.0, 0.0, 0.0, 0.0, 0.0, 0.0, 0.0, 0.0, 1.7695664212320795E9, 0.0, 2026-01-27 18:13:41.232
25.0, -13195.061766512605, -18994.601845097764, -36869.560106940284, -14556.372410818627, -14359.69941135638, -187500.02235174447, -187500.02235174447, -187500.02235174447, 0.044, -0.018000000000000002, 0.994, 192.0, 0.0, 0.0, 0.0, 0.0, 0.0, 0.0, 0.0, 0.0, 0.0, 1.7695664212350025E9, 0.0, 2026-01-27 18:13:41.235
26.0, -13348.059457309182, -19143.68798061466, -29567.3793038582, -14700.854086977732, -14502.169430514507, -187500.02235174447, -187500.02235174447, -187500.02235174447, 0.044, -0.018000000000000002, 0.994, 192.0, 0.0, 0.0, 0.0, 0.0, 0.0, 0.0, 0.0, 0.0, 0.0, 1.7695664212389705E9, 0.0, 2026-01-27 18:13:41.238
27.0, -13252.438694529379, -19095.83289573585, -30365.694208823945, -14625.685170374534, -14405.833411912134, -187500.02235174447, -187500.02235174447, -187500.02235174447, 0.044, -0.018000000000000002, 0.994, 192.0, 0.0, 0.0, 0.0, 0.0, 0.0, 0.0, 0.0, 0.0, 0.0, 1.769566421243084E9, 0.0, 2026-01-27 18:13:41.243
28.0, -13083.548913425078, -18949.294859086855, -38219.113733662816, -14465.087886463152, -14244.856148345012, -187500.02235174447, -187500.02235174447, -187500.02235174447, 0.044, -0.018000000000000002, 0.994, 192.0, 0.0, 0.0, 0.0, 0.0, 0.0, 0.0, 0.0, 0.0, 0.0, 1.7695664212479668E9, 0.0, 2026-01-27 18:13:41.247
29.0, -13168.999632477717, -18974.88760648818, -38052.19090607058, -14524.185898802985, -14323.9813237168, -187500.02235174447, -187500.02235174447, -187500.02235174447, 0.044, -0.018000000000000002, 0.994, 192.0, 0.0, 0.0, 0.0, 0.0, 0.0, 0.0, 0.0, 0.0, 0.0, 1.7695664212519927E9, 0.0, 2026-01-27 18:13:41.251
30.0, -13339.386980460524, -19124.30901817191, -30484.739599792912, -14677.228293088472, -14481.605825615625, -187500.02235174447, -187500.02235174447, -187500.02235174447, 0.044, -0.018000000000000002, 0.994, 192.0, 0.0, 0.0, 0.0, 0.0, 0.0, 0.0, 0.0, 0.0, 0.0, 1.7695664212560072E9, 0.0, 2026-01-27 18:13:41.256
31.0, -13281.831238488108, -19110.517991842986, -29491.87511108817, -14643.61126942769, -14436.500005304815, -187500.02235174447, -187500.02235174447, -187500.02235174447, 0.044, -0.018000000000000002, 0.994, 192.0, 0.0, 0.0, 0.0, 0.0, 0.0, 0.0, 0.0, 0.0, 0.0, 1.7695664212600183E9, 0.0, 2026-01-27 18:13:41.260
32.0, -13093.897771107886, -18961.476559814997, -36978.68132337109, -14477.157828469019, -14261.217625286297, -187500.02235174447, -187500.02235174447, -187500.02235174447, 0.044, -0.018000000000000002, 0.994, 192.0, 0.0, 0.0, 0.0, 0.0, 0.0, 0.0, 0.0, 0.0, 0.0, 1.7695664212629824E9, 0.0, 2026-01-27 18:13:41.262
33.0, -13130.55463201459, -18946.970277663502, -39005.71632453398, -14495.8215350892, -14294.834648947079, -187500.02235174447, -187500.02235174447, -187500.02235174447, 0.044, -0.014, 0.986, 192.0, 1.0, 96.0, 255.0, 144.0, 30.0, 208.0, 0.0, 0.0, 0.0, 1.769566421266998E9, 0.0, 2026-01-27 18:13:41.266
34.0, -13312.564887114155, -19096.369337602777, -31676.713428105526, -14657.067019589786, -14462.249214917329, -187500.02235174447, -187500.02235174447, -187500.02235174447, 0.044, -0.014, 0.986, 192.0, 0.0, 0.0, 0.0, 0.0, 0.0, 0.0, 0.0, 0.0, 0.0, 1.7695664212710135E9, 0.0, 2026-01-27 18:13:41.271
35.0, -13303.780651543218, -19123.75022456053, -28941.44105213178, -14667.52763599487, -14458.896453249034, -187500.02235174447, -187500.02235174447, -187500.02235174447, 0.044, -0.014, 0.986, 192.0, 0.0, 0.0, 0.0, 0.0, 0.0, 0.0, 0.0, 0.0, 0.0, 1.7695664212750435E9, 0.0, 2026-01-27 18:13:41.275
36.0, -13131.001666903696, -18998.96043526655, -35516.16198017144, -14515.468718465414, -14295.326387325096, -187500.02235174447, -187500.02235174447, -187500.02235174447, 0.044, -0.014, 0.986, 192.0, 0.0, 0.0, 0.0, 0.0, 0.0, 0.0, 0.0, 0.0, 0.0, 1.7695664212800088E9, 0.0, 2026-01-27 18:13:41.280
37.0, -13113.58965797301, -18944.08690262877, -39588.24748852819, -14485.472677406393, -14277.936730138867, -187500.02235174447, -187500.02235174447, -187500.02235174447, 0.044, -0.014, 0.986, 192.0, 0.0, 0.0, 0.0, 0.0, 0.0, 0.0, 0.0, 0.0, 0.0, 1.7695664212840216E9, 0.0, 2026-01-27 18:13:41.284
38.0, -13288.156782168959, -19074.978718159047, -32986.033914808504, -14632.636562900134, -14436.81292972719, -187500.02235174447, -187500.02235174447, -187500.02235174447, 0.044, -0.014, 0.986, 192.0, 0.0, 0.0, 0.0, 0.0, 0.0, 0.0, 0.0, 0.0, 0.0, 1.7695664212880354E9, 0.0, 2026-01-27 18:13:41.288
39.0, -13324.120738997548, -19135.06020725491, -28641.34653107483, -14678.636452989156, -14472.128685966574, -187500.02235174447, -187500.02235174447, -187500.02235174447, 0.044, -0.014, 0.986, 192.0, 0.0, 0.0, 0.0, 0.0, 0.0, 0.0, 0.0, 0.0, 0.0, 1.7695664212910523E9, 0.0, 2026-01-27 18:13:41.291
40.0, -13152.481693325246, -19017.735900609005, -33975.14331044475, -14535.11590184163, -14313.610114289537, -187500.02235174447, -187500.02235174447, -187500.02235174447, 0.044, -0.014, 0.986, 192.0, 0.0, 0.0, 0.0, 0.0, 0.0, 0.0, 0.0, 0.0, 0.0, 1.7695664212950382E9, 0.0, 2026-01-27 18:13:41.295
41.0, -13089.919160594842, -18927.054873353823, -39801.25961318727, -14463.277395162273, -14249.505311191717, -187500.02235174447, -187500.02235174447, -187500.02235174447, 0.044, -0.014, 0.986, 192.0, 0.0, 0.0, 0.0, 0.0, 0.0, 0.0, 0.0, 0.0, 0.0, 1.769566421299076E9, 0.0, 2026-01-27 18:13:41.299
42.0, -13261.781723711698, -19044.513290466464, -34440.55133349315, -14602.439356141014, -14404.537010733726, -187500.02235174447, -187500.02235174447, -187500.02235174447, 0.044, -0.014, 0.986, 192.0, 0.0, 0.0, 0.0, 0.0, 0.0, 0.0, 0.0, 0.0, 0.0, 1.7695664213032615E9, 0.0, 2026-01-27 18:13:41.303
43.0, -13344.5502334297, -19143.50916665902, -28708.312357462928, -14688.493572293946, -14485.047994261742, -187500.02235174447, -187500.02235174447, -187500.02235174447, 0.046, -0.01, 0.986, 192.0, 1.0, 112.0, 255.0, 176.0, 30.0, 208.0, 0.0, 0.0, 0.0, 1.769566421308064E9, 0.0, 2026-01-27 18:13:41.308
44.0, -13188.020967009184, -19043.10513056578, -32515.842618446666, -14557.02061140783, -14333.950201743866, -187500.02235174447, -187500.02235174447, -187500.02235174447, 0.046, -0.01, 0.986, 192.0, 0.0, 0.0, 0.0, 0.0, 0.0, 0.0, 0.0, 0.0, 0.0, 1.7695664213120532E9, 0.0, 2026-01-27 18:13:41.312
45.0, -13077.670404633333, -18927.568963476297, -39600.45154100079, -14448.972278710877, -14229.656962115403, -187500.02235174447, -187500.02235174447, -187500.02235174447, 0.046, -0.01, 0.986, 192.0, 0.0, 0.0, 0.0, 0.0, 0.0, 0.0, 0.0, 0.0, 0.0, 1.7695664213160713E9, 0.0, 2026-01-27 18:13:41.316
46.0, -13235.80899665463, -19028.017703058445, -35879.511938036914, -14580.244073896894, -14385.538027946715, -187500.02235174447, -187500.02235174447, -187500.02235174447, 0.046, -0.01, 0.986, 192.0, 0.0, 0.0, 0.0, 0.0, 0.0, 0.0, 0.0, 0.0, 0.0, 1.769566421319096E9, 0.0, 2026-01-27 18:13:41.319
47.0, -13359.5035504703, -19156.763751121016, -29084.179292223373, -14707.984293458974, -14507.310331739227, -187500.02235174447, -187500.02235174447, -187500.02235174447, 0.046, -0.01, 0.986, 192.0, 0.0, 0.0, 0.0, 0.0, 0.0, 0.0, 0.0, 0.0, 0.0, 1.7695664213230977E9, 0.0, 2026-01-27 18:13:41.323
48.0, -13235.160796065426, -19086.623977020263, -31180.012962819692, -14615.090443502719, -14396.17745830744, -187500.02235174447, -187500.02235174447, -187500.02235174447, 0.046, -0.01, 0.986, 192.0, 0.0, 0.0, 0.0, 0.0, 0.0, 0.0, 0.0, 0.0, 0.0, 1.7695664213270636E9, 0.0, 2026-01-27 18:13:41.327
49.0, -13074.518808665134, -18941.762321205417, -38944.87487612663, -14468.284185920262, -14248.790055369147, -187500.02235174447, -187500.02235174447, -187500.02235174447, 0.046, -0.01, 0.986, 192.0, 0.0, 0.0, 0.0, 0.0, 0.0, 0.0, 0.0, 0.0, 0.0, 1.7695664213310535E9, 0.0, 2026-01-27 18:13:41.331
50.0, -13191.820763566586, -18996.747612565472, -37225.89161704679, -14555.455989295959, -14354.64791710948, -187500.02235174447, -187500.02235174447, -187500.02235174447, 0.046, -0.01, 0.986, 192.0, 0.0, 0.0, 0.0, 0.0, 0.0, 0.0, 0.0, 0.0, 0.0, 1.7695664213360837E9, 0.0, 2026-01-27 18:13:41.336
51.0, -13349.869948610061, -19143.397407936744, -29817.763545246547, -14700.831735233276, -14502.795279359256, -187500.02235174447, -187500.02235174447, -187500.02235174447, 0.046, -0.01, 0.986, 192.0, 0.0, 0.0, 0.0, 0.0, 0.0, 0.0, 0.0, 0.0, 0.0, 1.769566421340102E9, 0.0, 2026-01-27 18:13:41.340
52.0, -13264.508636535245, -19109.98154997606, -30124.787107084645, -14642.314868249283, -14429.079226145654, -187500.02235174447, -187500.02235174447, -187500.02235174447, 0.046, -0.01, 0.986, 192.0, 0.0, 0.0, 0.0, 0.0, 0.0, 0.0, 0.0, 0.0, 0.0, 1.7695664213430796E9, 0.0, 2026-01-27 18:13:41.343
53.0, -13083.906541336364, -18963.979955193994, -37933.45843952399, -14483.081040749676, -14264.793904399146, -187500.02235174447, -187500.02235174447, -187500.02235174447, 0.052000000000000005, -0.01, 0.99, 192.0, 1.0, 160.0, 255.0, 176.0, 30.0, 240.0, 0.0, 0.0, 0.0, 1.7695664213470638E9, 0.0, 2026-01-27 18:13:41.347
54.0, -13153.867501481474, -18979.581472823797, -38358.4545085972, -14529.058579094242, -14328.809300519146, -187500.02235174447, -187500.02235174447, -187500.02235174447, 0.052000000000000005, -0.01, 0.99, 192.0, 0.0, 0.0, 0.0, 0.0, 0.0, 0.0, 0.0, 0.0, 0.0, 1.7695664213511271E9, 0.0, 2026-01-27 18:13:41.351
55.0, -13339.007000804782, -19136.401311922233, -30813.801981663943, -14689.47704904998, -14485.942064039955, -187500.02235174447, -187500.02235174447, -187500.02235174447, 0.052000000000000005, -0.01, 0.99, 192.0, 0.0, 0.0, 0.0, 0.0, 0.0, 0.0, 0.0, 0.0, 0.0, 1.7695664213551464E9, 0.0, 2026-01-27 18:13:41.355
56.0, -13293.722366538332, -19131.059244997414, -29352.04259777577, -14667.013545872396, -14447.586470554646, -187500.02235174447, -187500.02235174447, -187500.02235174447, 0.052000000000000005, -0.01, 0.99, 192.0, 0.0, 0.0, 0.0, 0.0, 0.0, 0.0, 0.0, 0.0, 0.0, 1.7695664213591697E9, 0.0, 2026-01-27 18:13:41.359
57.0, -13112.896753894896, -18990.265606673434, -36624.406173754476, -14508.383215473083, -14281.0212708737, -187500.02235174447, -187500.02235174447, -187500.02235174447, 0.052000000000000005, -0.01, 0.99, 192.0, 0.0, 0.0, 0.0, 0.0, 0.0, 0.0, 0.0, 0.0, 0.0, 1.7695664213641548E9, 0.0, 2026-01-27 18:13:41.364
58.0, -13140.635268763932, -18971.154865164146, -39197.4495884716, -14520.296695267762, -14306.457556063839, -187500.02235174447, -187500.02235174447, -187500.02235174447, 0.052000000000000005, -0.01, 0.99, 192.0, 0.0, 0.0, 0.0, 0.0, 0.0, 0.0, 0.0, 0.0, 0.0, 1.7695664213681405E9, 0.0, 2026-01-27 18:13:41.368
59.0, -13321.662047107464, -19118.229343680065, -32012.347222846416, -14677.854141933221, -14473.067459233698, -187500.02235174447, -187500.02235174447, -187500.02235174447, 0.052000000000000005, -0.01, 0.99, 192.0, 0.0, 0.0, 0.0, 0.0, 0.0, 0.0, 0.0, 0.0, 0.0, 1.769566421371166E9, 0.0, 2026-01-27 18:13:41.371
60.0, -13319.940962784405, -19149.991172551057, -28840.366463704882, -14694.193267130051, -14479.728279081379, -187500.02235174447, -187500.02235174447, -187500.02235174447, 0.052000000000000005, -0.01, 0.99, 192.0, 0.0, 0.0, 0.0, 0.0, 0.0, 0.0, 0.0, 0.0, 0.0, 1.769566421375146E9, 0.0, 2026-01-27 18:13:41.375
61.0, -13141.708152497788, -19019.32287446533, -35122.27953938002, -14537.507538498348, -14313.476003822805, -187500.02235174447, -187500.02235174447, -187500.02235174447, 0.052000000000000005, -0.01, 0.99, 192.0, 0.0, 0.0, 0.0, 0.0, 0.0, 0.0, 0.0, 0.0, 0.0, 1.7695664213791287E9, 0.0, 2026-01-27 18:13:41.379
62.0, -13107.666445692355, -18950.390094565166, -39702.375495716995, -14492.804049587734, -14278.607282472525, -187500.02235174447, -187500.02235174447, -187500.02235174447, 0.052000000000000005, -0.01, 0.99, 192.0, 0.0, 0.0, 0.0, 0.0, 0.0, 0.0, 0.0, 0.0, 0.0, 1.7695664213832083E9, 0.0, 2026-01-27 18:13:41.383
63.0, -13292.940055482395, -19088.076840409856, -33390.958117360846, -14650.026220086364, -14444.010191441797, -187500.02235174447, -187500.02235174447, -187500.02235174447, 0.05, -0.01, 0.99, 192.0, 1.0, 144.0, 255.0, 176.0, 30.0, 240.0, 0.0, 0.0, 0.0, 1.769566421387191E9, 0.0, 2026-01-27 18:13:41.387
64.0, -13344.863157852073, -19164.922137847203, -28634.99863564952, -14716.187383674072, -14507.980884072887, -187500.02235174447, -187500.02235174447, -187500.02235174447, 0.05, -0.01, 0.99, 192.0, 0.0, 0.0, 0.0, 0.0, 0.0, 0.0, 0.0, 0.0, 0.0, 1.7695664213911724E9, 0.0, 2026-01-27 18:13:41.391
65.0, -13175.191065691837, -19045.67558117814, -33573.840090494166, -14568.911739458053, -14346.333068172107, -187500.02235174447, -187500.02235174447, -187500.02235174447, 0.05, -0.01, 0.99, 192.0, 0.0, 0.0, 0.0, 0.0, 0.0, 0.0, 0.0, 0.0, 0.0, 1.7695664213962128E9, 0.0, 2026-01-27 18:13:41.396
66.0, -13081.157276768361, -18934.98974263546, -39806.22170045635, -14472.24044468885, -14255.808503128113, -187500.02235174447, -187500.02235174447, -187500.02235174447, 0.05, -0.01, 0.99, 192.0, 0.0, 0.0, 0.0, 0.0, 0.0, 0.0, 0.0, 0.0, 0.0, 1.7695664213991895E9, 0.0, 2026-01-27 18:13:41.399
67.0, -13254.606813741544, -19057.63376446173, -34847.08486164628, -14619.627847627145, -14416.338731806129, -187500.02235174447, -187500.02235174447, -187500.02235174447, 0.05, -0.01, 0.99, 192.0, 0.0, 0.0, 0.0, 0.0, 0.0, 0.0, 0.0, 0.0, 0.0, 1.7695664214031744E9, 0.0, 2026-01-27 18:13:41.403
68.0, -13347.902995097995, -19166.397352981254, -28797.495817839605, -14718.981351730985, -14509.009064317832, -187500.02235174447, -187500.02235174447, -187500.02235174447, 0.05, -0.01, 0.99, 192.0, 0.0, 0.0, 0.0, 0.0, 0.0, 0.0, 0.0, 0.0, 0.0, 1.7695664214071856E9, 0.0, 2026-01-27 18:13:41.407
69.0, -13208.495164930246, -19082.600663018307, -32142.568486043037, -14607.803774810289, -14383.168743034452, -187500.02235174447, -187500.02235174447, -187500.02235174447, 0.05, -0.01, 0.99, 192.0, 0.0, 0.0, 0.0, 0.0, 0.0, 0.0, 0.0, 0.0, 0.0, 1.7695664214112136E9, 0.0, 2026-01-27 18:13:41.411
70.0, -13080.933759323807, -18954.03342891138, -39456.28278926406, -14482.902226794033, -14260.457665974816, -187500.02235174447, -187500.02235174447, -187500.02235174447, 0.05, -0.01, 0.99, 192.0, 0.0, 0.0, 0.0, 0.0, 0.0, 0.0, 0.0, 0.0, 0.0, 1.769566421415223E9, 0.0, 2026-01-27 18:13:41.415
71.0, -13231.070426830105, -19042.00989508747, -36235.30700627649, -14598.237228183418, -14392.46706872786, -187500.02235174447, -187500.02235174447, -187500.02235174447, 0.05, -0.01, 0.99, 192.0, 0.0, 0.0, 0.0, 0.0, 0.0, 0.0, 0.0, 0.0, 0.0, 1.7695664214204617E9, 0.0, 2026-01-27 18:13:41.420
72.0, -13360.88935862653, -19172.02999258399, -29237.154631275494, -14725.038674478374, -14516.519250454814, -187500.02235174447, -187500.02235174447, -187500.02235174447, 0.05, -0.01, 0.99, 192.0, 0.0, 0.0, 0.0, 0.0, 0.0, 0.0, 0.0, 0.0, 0.0, 1.769566421424208E9, 0.0, 2026-01-27 18:13:41.424
73.0, -13254.763275952731, -19120.799794292427, -30867.58027882341, -14648.975688096963, -14422.32899932015, -187500.02235174447, -187500.02235174447, -187500.02235174447, 0.05, -0.01, 0.994, 192.0, 1.0, 144.0, 255.0, 176.0, 31.0, 16.0, 0.0, 0.0, 0.0, 1.7695664214272223E9, 0.0, 2026-01-27 18:13:41.427
74.0, -13084.666500647843, -18970.730182019495, -38718.675222238926, -14492.066442020709, -14259.161264796408, -187500.02235174447, -187500.02235174447, -187500.02235174447, 0.05, -0.01, 0.994, 192.0, 0.0, 0.0, 0.0, 0.0, 0.0, 0.0, 0.0, 0.0, 0.0, 1.7695664214312344E9, 0.0, 2026-01-27 18:13:41.431
75.0, -13196.46992641329, -19022.720339622538, -37550.57305700458, -14575.617262794645, -14358.581824133615, -187500.02235174447, -187500.02235174447, -187500.02235174447, 0.05, -0.01, 0.994, 192.0, 0.0, 0.0, 0.0, 0.0, 0.0, 0.0, 0.0, 0.0, 0.0, 1.76956642143522E9, 0.0, 2026-01-27 18:13:41.435
76.0, -13353.78150388974, -19165.391524480765, -30041.593914221994, -14717.841412763764, -14504.225791004395, -187500.02235174447, -187500.02235174447, -187500.02235174447, 0.05, -0.01, 0.994, 192.0, 0.0, 0.0, 0.0, 0.0, 0.0, 0.0, 0.0, 0.0, 0.0, 1.769566421439215E9, 0.0, 2026-01-27 18:13:41.439
77.0, -13279.43960183139, -19136.043684010947, -29891.47959846015, -14666.18653132755, -14442.713790263391, -187500.02235174447, -187500.02235174447, -187500.02235174447, 0.05, -0.01, 0.994, 192.0, 0.0, 0.0, 0.0, 0.0, 0.0, 0.0, 0.0, 0.0, 0.0, 1.76956642144324E9, 0.0, 2026-01-27 18:13:41.443
78.0, -13094.188343785805, -18978.62034781222, -37616.86833105902, -14492.424069931993, -14264.34686951004, -187500.02235174447, -187500.02235174447, -187500.02235174447, 0.05, -0.01, 0.994, 192.0, 0.0, 0.0, 0.0, 0.0, 0.0, 0.0, 0.0, 0.0, 0.0, 1.769566421447245E9, 0.0, 2026-01-27 18:13:41.447
79.0, -13153.196949147816, -18981.481371102498, -38627.39069788346, -14527.896288382566, -14316.06880617962, -187500.02235174447, -187500.02235174447, -187500.02235174447, 0.05, -0.01, 0.994, 192.0, 0.0, 0.0, 0.0, 0.0, 0.0, 0.0, 0.0, 0.0, 0.0, 1.7695664214512398E9, 0.0, 2026-01-27 18:13:41.451
80.0, -13331.675628623443, -19132.579163620372, -31110.052002674583, -14683.129153624674, -14479.281244192272, -187500.02235174447, -187500.02235174447, -187500.02235174447, 0.05, -0.01, 0.994, 192.0, 0.0, 0.0, 0.0, 0.0, 0.0, 0.0, 0.0, 0.0, 0.0, 1.7695664214544132E9, 0.0, 2026-01-27 18:13:41.454
81.0, -13297.522163095733, -19138.435320667664, -29170.099397909573, -14669.38283078466, -14451.967412467888, -187500.02235174447, -187500.02235174447, -187500.02235174447, 0.05, -0.01, 0.994, 192.0, 0.0, 0.0, 0.0, 0.0, 0.0, 0.0, 0.0, 0.0, 0.0, 1.7695664214592233E9, 0.0, 2026-01-27 18:13:41.459
82.0, -13112.203849816782, -18996.881723032206, -36233.518866720064, -14507.086814294675, -14281.11067785152, -187500.02235174447, -187500.02235174447, -187500.02235174447, 0.05, -0.01, 0.994, 192.0, 0.0, 0.0, 0.0, 0.0, 0.0, 0.0, 0.0, 0.0, 0.0, 1.769566421463246E9, 0.0, 2026-01-27 18:13:41.463
83.0, -13124.251440078193, -18964.09171391627, -39384.44428258471, -14505.186916015973, -14291.437183789873, -187500.02235174447, -187500.02235174447, -187500.02235174447, 0.042, -0.012, 0.996, 192.0, 1.0, 80.0, 255.0, 160.0, 31.0, 32.0, 0.0, 0.0, 0.0, 1.7695664214672556E9, 0.0, 2026-01-27 18:13:41.467
84.0, -13311.559058613666, -19116.016520978992, -32347.31046525365, -14672.266205819395, -14473.693308078446, -187500.02235174447, -187500.02235174447, -187500.02235174447, 0.042, -0.012, 0.996, 192.0, 0.0, 0.0, 0.0, 0.0, 0.0, 0.0, 0.0, 0.0, 0.0, 1.7695664214713607E9, 0.0, 2026-01-27 18:13:41.471
85.0, -13325.908878553973, -19162.955184335136, -28706.390107439773, -14704.7209387685, -14494.033395532775, -187500.02235174447, -187500.02235174447, -187500.02235174447, 0.042, -0.012, 0.996, 192.0, 0.0, 0.0, 0.0, 0.0, 0.0, 0.0, 0.0, 0.0, 0.0, 1.769566421475285E9, 0.0, 2026-01-27 18:13:41.475
86.0, -13144.904451954897, -19034.05267406138, -34674.57409794022, -14545.375352546616, -14319.466271336827, -187500.02235174447, -187500.02235174447, -187500.02235174447, 0.042, -0.012, 0.996, 192.0, 0.0, 0.0, 0.0, 0.0, 0.0, 0.0, 0.0, 0.0, 0.0, 1.769566421479282E9, 0.0, 2026-01-27 18:13:41.479
87.0, -13083.526561680623, -18941.382341549677, -39774.795147752186, -14471.189912699452, -14255.674392661382, -187500.02235174447, -187500.02235174447, -187500.02235174447, 0.042, -0.012, 0.996, 192.0, 0.0, 0.0, 0.0, 0.0, 0.0, 0.0, 0.0, 0.0, 0.0, 1.7695664214822798E9, 0.0, 2026-01-27 18:13:41.482
88.0, -13271.571787783121, -19074.62109024776, -33772.50239521294, -14621.661856372579, -14422.32899932015, -187500.02235174447, -187500.02235174447, -187500.02235174447, 0.042, -0.012, 0.996, 192.0, 0.0, 0.0, 0.0, 0.0, 0.0, 0.0, 0.0, 0.0, 0.0, 1.7695664214873073E9, 0.0, 2026-01-27 18:13:41.487
89.0, -13336.324791470146, -19161.681134901184, -28626.057937867397, -14696.696662509044, -14487.014947773809, -187500.02235174447, -187500.02235174447, -187500.02235174447, 0.042, -0.012, 0.996, 192.0, 0.0, 0.0, 0.0, 0.0, 0.0, 0.0, 0.0, 0.0, 0.0, 1.7695664214912927E9, 0.0, 2026-01-27 18:13:41.491
90.0, -13175.973376747774, -19051.039999847413, -33172.626277521405, -14558.965213175443, -14333.50316685476, -187500.02235174447, -187500.02235174447, -187500.02235174447, 0.042, -0.012, 0.996, 192.0, 0.0, 0.0, 0.0, 0.0, 0.0, 0.0, 0.0, 0.0, 0.0, 1.7695664214953117E9, 0.0, 2026-01-27 18:13:41.495
91.0, -13079.950282567774, -18939.303629315335, -39745.60376949356, -14462.450380617427, -14243.738561122247, -187500.02235174447, -187500.02235174447, -187500.02235174447, 0.042, -0.012, 0.996, 192.0, 0.0, 0.0, 0.0, 0.0, 0.0, 0.0, 0.0, 0.0, 0.0, 1.7695664214992993E9, 0.0, 2026-01-27 18:13:41.499
92.0, -13246.873110160008, -19050.212985302565, -35204.80217990901, -14603.623998597146, -14400.960731620877, -187500.02235174447, -187500.02235174447, -187500.02235174447, 0.042, -0.012, 0.996, 192.0, 0.0, 0.0, 0.0, 0.0, 0.0, 0.0, 0.0, 0.0, 0.0, 1.769566421503333E9, 0.0, 2026-01-27 18:13:41.503
93.0, -13353.423875978457, -19167.157312292733, -28845.105033529406, -14716.187383674072, -14507.802070117245, -187500.02235174447, -187500.02235174447, -187500.02235174447, 0.048, -0.014, 0.992, 192.0, 1.0, 128.0, 255.0, 144.0, 31.0, 0.0, 0.0, 0.0, 0.0, 1.7695664215073628E9, 0.0, 2026-01-27 18:13:41.507
94.0, -13212.13849927646, -19079.806694961393, -31786.549900358907, -14604.048681741797, -14381.067679055654, -187500.02235174447, -187500.02235174447, -187500.02235174447, 0.048, -0.014, 0.992, 192.0, 0.0, 0.0, 0.0, 0.0, 0.0, 0.0, 0.0, 0.0, 0.0, 1.769566421510321E9, 0.0, 2026-01-27 18:13:41.510
95.0, -13078.653881389366, -18953.027600410893, -39312.29285148297, -14483.013985516309, -14259.831817130069, -187500.02235174447, -187500.02235174447, -187500.02235174447, 0.048, -0.014, 0.992, 192.0, 0.0, 0.0, 0.0, 0.0, 0.0, 0.0, 0.0, 0.0, 0.0, 1.7695664215153131E9, 0.0, 2026-01-27 18:13:41.515
96.0, -13212.004388809728, -19027.972999569538, -36615.91251086146, -14592.381071136126, -14383.928702345933, -187500.02235174447, -187500.02235174447, -187500.02235174447, 0.048, -0.014, 0.992, 192.0, 0.0, 0.0, 0.0, 0.0, 0.0, 0.0, 0.0, 0.0, 0.0, 1.7695664215195372E9, 0.0, 2026-01-27 18:13:41.519
97.0, -13345.824282863652, -19164.631565169282, -29426.87623821214, -14727.765587301921, -14518.083872566685, -187500.02235174447, -187500.02235174447, -187500.02235174447, 0.048, -0.014, 0.992, 192.0, 0.0, 0.0, 0.0, 0.0, 0.0, 0.0, 0.0, 0.0, 0.0, 1.769566421523868E9, 0.0, 2026-01-27 18:13:41.523
98.0, -13244.012086869729, -19117.044701223935, -30586.6188510202, -14654.831845144254, -14428.8557087011, -187500.02235174447, -187500.02235174447, -187500.02235174447, 0.048, -0.014, 0.992, 192.0, 0.0, 0.0, 0.0, 0.0, 0.0, 0.0, 0.0, 0.0, 0.0, 1.769566421527325E9, 0.0, 2026-01-27 18:13:41.527
99.0, -13075.725802865722, -18963.778789493896, -38465.96639942723, -14487.685500107467, -14260.63647993046, -187500.02235174447, -187500.02235174447, -187500.02235174447, 0.048, -0.014, 0.992, 192.0, 0.0, 0.0, 0.0, 0.0, 0.0, 0.0, 0.0, 0.0, 0.0, 1.7695664215313387E9, 0.0, 2026-01-27 18:13:41.531
100.0, -13167.569120832577, -18989.818571784326, -37870.605334115666, -14540.793244933278, -14332.251469165263, -187500.02235174447, -187500.02235174447, -187500.02235174447, 0.048, -0.014, 0.992, 192.0, 0.0, 0.0, 0.0, 0.0, 0.0, 0.0, 0.0, 0.0, 0.0, 1.7695664215353453E9, 0.0, 2026-01-27 18:13:41.535
101.0, -13339.051704293694, -19142.45863466962, -30291.575824210147, -14693.120383396195, -14487.238465218363, -187500.02235174447, -187500.02235174447, -187500.02235174447, 0.048, -0.014, 0.992, 192.0, 0.0, 0.0, 0.0, 0.0, 0.0, 0.0, 0.0, 0.0, 0.0, 1.7695664215383673E9, 0.0, 2026-01-27 18:13:41.538
102.0, -13293.29768339368, -19142.749207347537, -29614.18385674761, -14670.992156385442, -14448.704057777413, -187500.02235174447, -187500.02235174447, -187500.02235174447, 0.048, -0.014, 0.992, 192.0, 0.0, 0.0, 0.0, 0.0, 0.0, 0.0, 0.0, 0.0, 0.0, 1.769566421542863E9, 0.0, 2026-01-27 18:13:41.542
103.0, -13104.537201468613, -18989.2821299174, -37219.76723906604, -14496.425032189492, -14264.97271835479, -187500.02235174447, -187500.02235174447, -187500.02235174447, 0.044, -0.014, 0.996, 192.0, 1.0, 96.0, 255.0, 144.0, 31.0, 32.0, 0.0, 0.0, 0.0, 1.769566421547341E9, 0.0, 2026-01-27 18:13:41.547
104.0, -13144.256251365692, -18973.14417042067, -38828.422287514484, -14510.39487247406, -14295.236980347274, -187500.02235174447, -187500.02235174447, -187500.02235174447, 0.044, -0.014, 0.996, 192.0, 0.0, 0.0, 0.0, 0.0, 0.0, 0.0, 0.0, 0.0, 0.0, 1.769566421551372E9, 0.0, 2026-01-27 18:13:41.551
105.0, -13329.932192555929, -19130.72396883058, -31383.50324434081, -14672.601481986223, -14466.987784741854, -187500.02235174447, -187500.02235174447, -187500.02235174447, 0.044, -0.014, 0.996, 192.0, 0.0, 0.0, 0.0, 0.0, 0.0, 0.0, 0.0, 0.0, 0.0, 1.7695664215553713E9, 0.0, 2026-01-27 18:13:41.555
106.0, -13318.376340672534, -19157.70252438814, -28962.988133786697, -14678.43528728906, -14461.66806956149, -187500.02235174447, -187500.02235174447, -187500.02235174447, 0.044, -0.014, 0.996, 192.0, 0.0, 0.0, 0.0, 0.0, 0.0, 0.0, 0.0, 0.0, 0.0, 1.7695664215583737E9, 0.0, 2026-01-27 18:13:41.558
107.0, -13127.470091279756, -19010.963322039046, -35807.98635577993, -14508.15969802853, -14278.383765027973, -187500.02235174447, -187500.02235174447, -187500.02235174447, 0.044, -0.014, 0.996, 192.0, 0.0, 0.0, 0.0, 0.0, 0.0, 0.0, 0.0, 0.0, 0.0, 1.7695664215623543E9, 0.0, 2026-01-27 18:13:41.562
108.0, -13119.512870253668, -18963.577623793797, -39527.942481987775, -14490.881799564577, -14272.974642869789, -187500.02235174447, -187500.02235174447, -187500.02235174447, 0.044, -0.014, 0.996, 192.0, 0.0, 0.0, 0.0, 0.0, 0.0, 0.0, 0.0, 0.0, 0.0, 1.7695664215663931E9, 0.0, 2026-01-27 18:13:41.566
109.0, -13309.614456846055, -19114.78717503395, -32730.151144284147, -14658.877510890665, -14451.341563623138, -187500.02235174447, -187500.02235174447, -187500.02235174447, 0.044, -0.014, 0.996, 192.0, 0.0, 0.0, 0.0, 0.0, 0.0, 0.0, 0.0, 0.0, 0.0, 1.7695664215714612E9, 0.0, 2026-01-27 18:13:41.571
110.0, -13333.955506557884, -19169.884225116282, -28674.471816357593, -14701.278770122382, -14483.304558194228, -187500.02235174447, -187500.02235174447, -187500.02235174447, 0.044, -0.014, 0.996, 192.0, 0.0, 0.0, 0.0, 0.0, 0.0, 0.0, 0.0, 0.0, 0.0, 1.7695664215753968E9, 0.0, 2026-01-27 18:13:41.575
111.0, -13158.896643983919, -19047.396665501197, -34306.03853536112, -14552.237338094395, -14318.616905047526, -187500.02235174447, -187500.02235174447, -187500.02235174447, 0.044, -0.014, 0.996, 192.0, 0.0, 0.0, 0.0, 0.0, 0.0, 0.0, 0.0, 0.0, 0.0, 1.7695664215793905E9, 0.0, 2026-01-27 18:13:41.579
112.0, -13095.752965897676, -18959.80017898085, -39830.04866004571, -14486.254988462328, -14260.412962485905, -187500.02235174447, -187500.02235174447, -187500.02235174447, 0.044, -0.014, 0.996, 192.0, 0.0, 0.0, 0.0, 0.0, 0.0, 0.0, 0.0, 0.0, 0.0, 1.7695664215833964E9, 0.0, 2026-01-27 18:13:41.583
113.0, -13274.790438984686, -19087.92037819867, -34172.553917474026, -14638.671533903067, -14432.029656413753, -187500.02235174447, -187500.02235174447, -187500.02235174447, 0.044, -0.01, 0.994, 192.0, 1.0, 96.0, 255.0, 176.0, 31.0, 16.0, 0.0, 0.0, 0.0, 1.7695664215863912E9, 0.0, 2026-01-27 18:13:41.586
114.0, -13353.647393423009, -19184.703431690148, -28655.830461481866, -14724.636343078178, -14508.24910500635, -187500.02235174447, -187500.02235174447, -187500.02235174447, 0.044, -0.01, 0.994, 192.0, 0.0, 0.0, 0.0, 0.0, 0.0, 0.0, 0.0, 0.0, 0.0, 1.7695664215904531E9, 0.0, 2026-01-27 18:13:41.590
115.0, -13197.743975847243, -19080.991337417527, -32794.74768575998, -14586.726079788934, -14355.810207821156, -187500.02235174447, -187500.02235174447, -187500.02235174447, 0.044, -0.01, 0.994, 192.0, 0.0, 0.0, 0.0, 0.0, 0.0, 0.0, 0.0, 0.0, 0.0, 1.769566421594462E9, 0.0, 2026-01-27 18:13:41.594
116.0, -13089.606236172467, -18959.174330136102, -39695.04412353565, -14467.8147992867, -14248.566537924593, -187500.02235174447, -187500.02235174447, -187500.02235174447, 0.044, -0.01, 0.994, 192.0, 0.0, 0.0, 0.0, 0.0, 0.0, 0.0, 0.0, 0.0, 0.0, 1.7695664215984151E9, 0.0, 2026-01-27 18:13:41.598
117.0, -13248.795360183163, -19058.907813895683, -35593.588422964625, -14590.704690301978, -14392.020033838753, -187500.02235174447, -187500.02235174447, -187500.02235174447, 0.044, -0.01, 0.994, 192.0, 0.0, 0.0, 0.0, 0.0, 0.0, 0.0, 0.0, 0.0, 0.0, 1.7695664216034255E9, 0.0, 2026-01-27 18:13:41.603
118.0, -13360.732896415342, -19179.83075139889, -28957.221383717228, -14703.782165501378, -14502.661168892524, -187500.02235174447, -187500.02235174447, -187500.02235174447, 0.044, -0.01, 0.994, 192.0, 0.0, 0.0, 0.0, 0.0, 0.0, 0.0, 0.0, 0.0, 0.0, 1.7695664216074476E9, 0.0, 2026-01-27 18:13:41.607
119.0, -13230.802205896642, -19103.745413273027, -31422.17176224849, -14604.003978252886, -14381.738231389312, -187500.02235174447, -187500.02235174447, -187500.02235174447, 0.044, -0.01, 0.994, 192.0, 0.0, 0.0, 0.0, 0.0, 0.0, 0.0, 0.0, 0.0, 0.0, 1.769566421612599E9, 0.0, 2026-01-27 18:13:41.612
120.0, -13082.118401779939, -18962.303574359845, -39129.813209749846, -14466.317232408195, -14241.81631109909, -187500.02235174447, -187500.02235174447, -187500.02235174447, 0.044, -0.01, 0.994, 192.0, 0.0, 0.0, 0.0, 0.0, 0.0, 0.0, 0.0, 0.0, 0.0, 1.769566421615491E9, 0.0, 2026-01-27 18:13:41.615
121.0, -13205.209458495316, -19024.262609989957, -36949.98168349048, -14565.98366093441, -14360.012335778754, -187500.02235174447, -187500.02235174447, -187500.02235174447, 0.044, -0.01, 0.994, 192.0, 0.0, 0.0, 0.0, 0.0, 0.0, 0.0, 0.0, 0.0, 0.0, 1.7695664216194875E9, 0.0, 2026-01-27 18:13:41.619
122.0, -13351.389867233023, -19162.12816979029, -29583.740780799482, -14707.246685891949, -14500.20247700244, -187500.02235174447, -187500.02235174447, -187500.02235174447, 0.044, -0.01, 0.994, 192.0, 0.0, 0.0, 0.0, 0.0, 0.0, 0.0, 0.0, 0.0, 0.0, 1.7695664216235075E9, 0.0, 2026-01-27 18:13:41.623
123.0, -13253.310412563136, -19114.83187852286, -30296.269690545763, -14639.498548447913, -14417.456319028894, -187500.02235174447, -187500.02235174447, -187500.02235174447, 0.048, -0.016, 0.996, 192.0, 1.0, 128.0, 255.0, 128.0, 31.0, 32.0, 0.0, 0.0, 0.0, 1.7695664216264606E9, 0.0, 2026-01-27 18:13:41.626
124.0, -13074.25058773167, -18963.309402860334, -38172.08566332885, -14480.510590137315, -14252.187520526353, -187500.02235174447, -187500.02235174447, -187500.02235174447, 0.048, -0.016, 0.996, 192.0, 0.0, 0.0, 0.0, 0.0, 0.0, 0.0, 0.0, 0.0, 0.0, 1.7695664216304812E9, 0.0, 2026-01-27 18:13:41.630
125.0, -13162.65173705241, -18990.645586329174, -38134.17710473265, -14544.92831765751, -14333.816091277135, -187500.02235174447, -187500.02235174447, -187500.02235174447, 0.048, -0.016, 0.996, 192.0, 0.0, 0.0, 0.0, 0.0, 0.0, 0.0, 0.0, 0.0, 0.0, 1.769566421634455E9, 0.0, 2026-01-27 18:13:41.634
126.0, -13338.381151960035, -19141.743378847048, -30522.46934443347, -14701.52463931139, -14495.329796711183, -187500.02235174447, -187500.02235174447, -187500.02235174447, 0.048, -0.016, 0.996, 192.0, 0.0, 0.0, 0.0, 0.0, 0.0, 0.0, 0.0, 0.0, 0.0, 1.7695664216389325E9, 0.0, 2026-01-27 18:13:41.638
127.0, -13289.453183347367, -19137.384788678264, -29431.525401058843, -14676.691851221545, -14456.214243914395, -187500.02235174447, -187500.02235174447, -187500.02235174447, 0.048, -0.016, 0.996, 192.0, 0.0, 0.0, 0.0, 0.0, 0.0, 0.0, 0.0, 0.0, 0.0, 1.7695664216439533E9, 0.0, 2026-01-27 18:13:41.643
128.0, -13103.01728284565, -18990.355013651253, -36887.39679901562, -14508.003235817343, -14279.009613872722, -187500.02235174447, -187500.02235174447, -187500.02235174447, 0.048, -0.016, 0.996, 192.0, 0.0, 0.0, 0.0, 0.0, 0.0, 0.0, 0.0, 0.0, 0.0, 1.7695664216474936E9, 0.0, 2026-01-27 18:13:41.647
129.0, -13137.483672795734, -18972.630080298197, -39065.216668274006, -14521.794262146266, -14310.793794488169, -187500.02235174447, -187500.02235174447, -187500.02235174447, 0.048, -0.016, 0.996, 192.0, 0.0, 0.0, 0.0, 0.0, 0.0, 0.0, 0.0, 0.0, 0.0, 1.7695664216515024E9, 0.0, 2026-01-27 18:13:41.651
130.0, -13322.712579096864, -19122.74439606004, -31724.456754262064, -14678.14471461114, -14479.14713372554, -187500.02235174447, -187500.02235174447, -187500.02235174447, 0.048, -0.016, 0.996, 192.0, 0.0, 0.0, 0.0, 0.0, 0.0, 0.0, 0.0, 0.0, 0.0, 1.7695664216552677E9, 0.0, 2026-01-27 18:13:41.655
131.0, -13307.736910311809, -19142.88331781427, -28883.90766190382, -14674.791952942844, -14466.943081252943, -187500.02235174447, -187500.02235174447, -187500.02235174447, 0.048, -0.016, 0.996, 192.0, 0.0, 0.0, 0.0, 0.0, 0.0, 0.0, 0.0, 0.0, 0.0, 1.7695664216585107E9, 0.0, 2026-01-27 18:13:41.658
132.0, -13121.41276853237, -19001.46383064554, -35436.500362932726, -14504.784584615778, -14288.218532588307, -187500.02235174447, -187500.02235174447, -187500.02235174447, 0.048, -0.016, 0.996, 192.0, 0.0, 0.0, 0.0, 0.0, 0.0, 0.0, 0.0, 0.0, 0.0, 1.7695664216625388E9, 0.0, 2026-01-27 18:13:41.662
133.0, -13107.197059058793, -18946.36678056321, -39659.10251845152, -14477.9177877805, -14275.567445226605, -187500.02235174447, -187500.02235174447, -187500.02235174447, 0.044, -0.014, 0.998, 192.0, 1.0, 96.0, 255.0, 144.0, 31.0, 48.0, 0.0, 0.0, 0.0, 1.7695664216665046E9, 0.0, 2026-01-27 18:13:41.666
134.0, -13296.762203784252, -19089.172075888167, -33092.294107949034, -14642.493682204926, -14451.162749667497, -187500.02235174447, -187500.02235174447, -187500.02235174447, 0.044, -0.014, 0.998, 192.0, 0.0, 0.0, 0.0, 0.0, 0.0, 0.0, 0.0, 0.0, 0.0, 1.7695664216708803E9, 0.0, 2026-01-27 18:13:41.670
135.0, -13332.949678057395, -19153.008658052524, -28627.041414623433, -14696.160220642118, -14493.273436221294, -187500.02235174447, -187500.02235174447, -187500.02235174447, 0.044, -0.014, 0.998, 192.0, 0.0, 0.0, 0.0, 0.0, 0.0, 0.0, 0.0, 0.0, 0.0, 1.7695664216755264E9, 0.0, 2026-01-27 18:13:41.675
136.0, -13155.208606148793, -19023.994389056494, -33884.26111748947, -14544.101303112664, -14329.301038897162, -187500.02235174447, -187500.02235174447, -187500.02235174447, 0.044, -0.014, 0.998, 192.0, 0.0, 0.0, 0.0, 0.0, 0.0, 0.0, 0.0, 0.0, 0.0, 1.7695664216795218E9, 0.0, 2026-01-27 18:13:41.679
137.0, -13087.907503593864, -18925.825527408782, -39824.19250299841, -14468.328889409173, -14261.39643924194, -187500.02235174447, -187500.02235174447, -187500.02235174447, 0.044, -0.014, 0.998, 192.0, 0.0, 0.0, 0.0, 0.0, 0.0, 0.0, 0.0, 0.0, 0.0, 1.7695664216825953E9, 0.0, 2026-01-27 18:13:41.682
